VERSION=1.3
ExportFileName=Factor Mix 4_2025-05-14_13-24-16_labchip_PURE_Data_C1
SampleLabel=C1
SampleName=Factor Mix 4
SampleComment=
SampleAreaConcRatio=0.010513
SampleLowerMarkerTime=12.33
SampleUpperMarkerTime=-1.00
SamplePeakTimes=12.33,15.37,15.70,16.82,18.73,19.07,19.63,19.95,20.40,20.62,21.03,21.27,22.08,22.72,23.45,24.10,24.42,26.07,26.42,26.95,27.78,28.77
SamplePeakSizes=1.102,7.127,8.284,13.000,24.254,26.623,30.925,33.478,37.287,39.195,42.997,45.201,53.326,60.048,68.265,75.913,79.757,100.919,105.631,112.948,124.684,138.960
SamplePeakQuantities=,,,5.0246,47.6759,4.6025,5.2577,108.4251,50.4349,11.2388,15.4322,1391.0971,57.1018,36.1635,27.5418,10.3700,39.9427,89.1856,164.2161,7.9189,95.5160,18.2274
PlateFileName=2025-05-14_13-24-16_labchip_PURE
PlateAssayName=HT Protein Express 200
PlateBarCode=N/A
WellAquisitionTime=5/14/2025 1:39:30 PM 
PlateDataFrequency=60
PlateDataStartTime=11.00
PlateDataEndTime=42.00
PlateConcUnits=ng/ul
PlateSizeUnits=kDa
PlateLadderSizes=1.40,15.90,20.40,28.90,48.40,68.40,119.20
ChipID=H296P-0563N-03
Operator=ACJS
DATA
Time,Value,Size
0.000,49.024,0.00
0.017,49.106,0.00
0.033,49.243,0.00
0.050,49.391,0.00
0.067,49.416,0.00
0.083,49.290,0.00
0.100,49.202,0.00
0.117,49.242,0.00
0.133,49.354,0.00
0.150,49.310,0.00
0.167,49.320,0.00
0.183,49.163,0.00
0.200,48.986,0.00
0.217,48.937,0.00
0.233,48.839,0.00
0.250,48.540,0.00
0.267,48.279,0.00
0.283,47.904,0.00
0.300,47.441,0.00
0.317,46.820,0.00
0.333,46.199,0.00
0.350,45.547,0.00
0.367,44.873,0.00
0.383,44.161,0.00
0.400,43.353,0.00
0.417,42.479,0.00
0.433,41.725,0.00
0.450,41.041,0.00
0.467,40.400,0.00
0.483,39.766,0.00
0.500,39.178,0.00
0.517,38.522,0.00
0.533,37.860,0.00
0.550,37.204,0.00
0.567,36.601,0.00
0.583,36.022,0.00
0.600,35.484,0.00
0.617,34.937,0.00
0.633,34.434,0.00
0.650,33.984,0.00
0.667,33.585,0.00
0.683,33.114,0.00
0.700,32.584,0.00
0.717,32.062,0.00
0.733,31.626,0.00
0.750,31.275,0.00
0.767,30.983,0.00
0.783,30.620,0.00
0.800,30.215,0.00
0.817,29.823,0.00
0.833,29.476,0.00
0.850,29.162,0.00
0.867,28.820,0.00
0.883,28.460,0.00
0.900,28.120,0.00
0.917,27.849,0.00
0.933,27.654,0.00
0.950,27.449,0.00
0.967,27.171,0.00
0.983,26.857,0.00
1.000,26.561,0.00
1.017,26.312,0.00
1.033,26.091,0.00
1.050,25.861,0.00
1.067,25.642,0.00
1.083,25.461,0.00
1.100,25.284,0.00
1.117,25.051,0.00
1.133,24.793,0.00
1.150,24.576,0.00
1.167,24.419,0.00
1.183,24.278,0.00
1.200,24.114,0.00
1.217,23.891,0.00
1.233,23.706,0.00
1.250,23.586,0.00
1.267,23.489,0.00
1.283,23.335,0.00
1.300,23.112,0.00
1.317,22.860,0.00
1.333,22.705,0.00
1.350,22.577,0.00
1.367,22.452,0.00
1.383,22.254,0.00
1.400,22.085,0.00
1.417,21.913,0.00
1.433,21.741,0.00
1.450,21.577,0.00
1.467,21.430,0.00
1.483,21.312,0.00
1.500,21.267,0.00
1.517,21.128,0.00
1.533,21.011,0.00
1.550,20.870,0.00
1.567,20.823,0.00
1.583,20.852,0.00
1.600,20.854,0.00
1.617,20.771,0.00
1.633,20.660,0.00
1.650,20.528,0.00
1.667,20.345,0.00
1.683,20.185,0.00
1.700,20.114,0.00
1.717,20.069,0.00
1.733,19.981,0.00
1.750,19.869,0.00
1.767,19.721,0.00
1.783,19.592,0.00
1.800,19.562,0.00
1.817,19.534,0.00
1.833,19.458,0.00
1.850,19.309,0.00
1.867,19.111,0.00
1.883,18.932,0.00
1.900,18.815,0.00
1.917,18.809,0.00
1.933,18.808,0.00
1.950,18.762,0.00
1.967,18.657,0.00
1.983,18.539,0.00
2.000,18.457,0.00
2.017,18.391,0.00
2.033,18.296,0.00
2.050,18.181,0.00
2.067,18.082,0.00
2.083,18.026,0.00
2.100,17.989,0.00
2.117,17.903,0.00
2.133,17.736,0.00
2.150,17.559,0.00
2.167,17.409,0.00
2.183,17.306,0.00
2.200,17.219,0.00
2.217,17.090,0.00
2.233,16.959,0.00
2.250,16.858,0.00
2.267,16.777,0.00
2.283,16.731,0.00
2.300,16.710,0.00
2.317,16.667,0.00
2.333,16.605,0.00
2.350,16.567,0.00
2.367,16.544,0.00
2.383,16.481,0.00
2.400,16.383,0.00
2.417,16.296,0.00
2.433,16.171,0.00
2.450,16.060,0.00
2.467,16.006,0.00
2.483,15.945,0.00
2.500,15.849,0.00
2.517,15.737,0.00
2.533,15.603,0.00
2.550,15.490,0.00
2.567,15.379,0.00
2.583,15.344,0.00
2.600,15.326,0.00
2.617,15.307,0.00
2.633,15.230,0.00
2.650,15.120,0.00
2.667,15.022,0.00
2.683,14.958,0.00
2.700,14.894,0.00
2.717,14.870,0.00
2.733,14.827,0.00
2.750,14.809,0.00
2.767,14.744,0.00
2.783,14.676,0.00
2.800,14.574,0.00
2.817,14.476,0.00
2.833,14.422,0.00
2.850,14.391,0.00
2.867,14.316,0.00
2.883,14.236,0.00
2.900,14.132,0.00
2.917,14.123,0.00
2.933,14.080,0.00
2.950,14.035,0.00
2.967,13.959,0.00
2.983,13.830,0.00
3.000,13.630,0.00
3.017,13.421,0.00
3.033,13.313,0.00
3.050,13.330,0.00
3.067,13.352,0.00
3.083,13.314,0.00
3.100,13.189,0.00
3.117,13.062,0.00
3.133,12.977,0.00
3.150,12.955,0.00
3.167,12.923,0.00
3.183,12.844,0.00
3.200,12.773,0.00
3.217,12.690,0.00
3.233,12.611,0.00
3.250,12.543,0.00
3.267,12.453,0.00
3.283,12.302,0.00
3.300,11.947,0.00
3.317,11.382,0.00
3.333,10.694,0.00
3.350,10.042,0.00
3.367,9.548,0.00
3.383,9.190,0.00
3.400,8.876,0.00
3.417,8.561,0.00
3.433,8.245,0.00
3.450,7.987,0.00
3.467,7.799,0.00
3.483,7.662,0.00
3.500,7.533,0.00
3.517,7.432,0.00
3.533,7.397,0.00
3.550,7.396,0.00
3.567,7.377,0.00
3.583,7.376,0.00
3.600,7.400,0.00
3.617,7.409,0.00
3.633,7.394,0.00
3.650,7.338,0.00
3.667,7.254,0.00
3.683,7.209,0.00
3.700,7.242,0.00
3.717,7.296,0.00
3.733,7.286,0.00
3.750,7.224,0.00
3.767,7.164,0.00
3.783,7.140,0.00
3.800,7.166,0.00
3.817,7.155,0.00
3.833,7.056,0.00
3.850,6.916,0.00
3.867,6.838,0.00
3.883,6.830,0.00
3.900,6.839,0.00
3.917,6.804,0.00
3.933,6.720,0.00
3.950,6.646,0.00
3.967,6.663,0.00
3.983,6.691,0.00
4.000,6.673,0.00
4.017,6.618,0.00
4.033,6.563,0.00
4.050,6.457,0.00
4.067,6.371,0.00
4.083,6.314,0.00
4.100,6.292,0.00
4.117,6.255,0.00
4.133,6.251,0.00
4.150,6.256,0.00
4.167,6.210,0.00
4.183,6.155,0.00
4.200,6.179,0.00
4.217,6.201,0.00
4.233,6.218,0.00
4.250,6.225,0.00
4.267,6.210,0.00
4.283,6.119,0.00
4.300,6.118,0.00
4.317,6.208,0.00
4.333,6.278,0.00
4.350,6.225,0.00
4.367,6.117,0.00
4.383,5.981,0.00
4.400,5.946,0.00
4.417,6.057,0.00
4.433,6.142,0.00
4.450,6.109,0.00
4.467,6.065,0.00
4.483,6.060,0.00
4.500,6.082,0.00
4.517,6.094,0.00
4.533,6.087,0.00
4.550,6.043,0.00
4.567,6.066,0.00
4.583,6.123,0.00
4.600,6.127,0.00
4.617,6.055,0.00
4.633,6.003,0.00
4.650,5.978,0.00
4.667,5.985,0.00
4.683,5.988,0.00
4.700,6.009,0.00
4.717,6.067,0.00
4.733,6.165,0.00
4.750,6.248,0.00
4.767,6.295,0.00
4.783,6.330,0.00
4.800,6.446,0.00
4.817,6.659,0.00
4.833,6.931,0.00
4.850,7.199,0.00
4.867,7.434,0.00
4.883,7.639,0.00
4.900,7.846,0.00
4.917,8.065,0.00
4.933,8.282,0.00
4.950,8.472,0.00
4.967,8.655,0.00
4.983,8.861,0.00
5.000,9.077,0.00
5.017,9.308,0.00
5.033,9.531,0.00
5.050,9.734,0.00
5.067,9.960,0.00
5.083,10.204,0.00
5.100,10.432,0.00
5.117,10.622,0.00
5.133,10.784,0.00
5.150,10.983,0.00
5.167,11.196,0.00
5.183,11.397,0.00
5.200,11.575,0.00
5.217,11.690,0.00
5.233,11.722,0.00
5.250,11.758,0.00
5.267,11.812,0.00
5.283,11.880,0.00
5.300,11.965,0.00
5.317,12.041,0.00
5.333,12.059,0.00
5.350,12.050,0.00
5.367,12.233,0.00
5.383,12.317,0.00
5.400,11.922,0.00
5.417,10.997,0.00
5.433,9.700,0.00
5.450,8.481,0.00
5.467,7.707,0.00
5.483,7.424,0.00
5.500,7.391,0.00
5.517,7.279,0.00
5.533,7.248,0.00
5.550,7.132,0.00
5.567,7.042,0.00
5.583,7.032,0.00
5.600,7.049,0.00
5.617,7.131,0.00
5.633,7.136,0.00
5.650,7.151,0.00
5.667,7.177,0.00
5.683,7.167,0.00
5.700,7.172,0.00
5.717,7.108,0.00
5.733,7.102,0.00
5.750,7.086,0.00
5.767,7.049,0.00
5.783,7.022,0.00
5.800,6.916,0.00
5.817,6.854,0.00
5.833,6.796,0.00
5.850,6.765,0.00
5.867,6.752,0.00
5.883,6.721,0.00
5.900,6.656,0.00
5.917,6.516,0.00
5.933,6.428,0.00
5.950,6.467,0.00
5.967,6.497,0.00
5.983,6.462,0.00
6.000,6.364,0.00
6.017,6.249,0.00
6.033,6.150,0.00
6.050,6.062,0.00
6.067,5.986,0.00
6.083,5.933,0.00
6.100,5.909,0.00
6.117,5.903,0.00
6.133,5.852,0.00
6.150,5.742,0.00
6.167,5.617,0.00
6.183,5.476,0.00
6.200,5.336,0.00
6.217,5.228,0.00
6.233,5.159,0.00
6.250,5.114,0.00
6.267,5.050,0.00
6.283,4.965,0.00
6.300,4.893,0.00
6.317,4.831,0.00
6.333,4.749,0.00
6.350,4.610,0.00
6.367,4.462,0.00
6.383,4.416,0.00
6.400,4.449,0.00
6.417,4.455,0.00
6.433,4.350,0.00
6.450,4.140,0.00
6.467,4.005,0.00
6.483,4.076,0.00
6.500,4.295,0.00
6.517,3.895,0.00
6.533,0.563,0.00
6.550,11.039,0.00
6.567,30.427,0.00
6.583,-18.762,0.00
6.600,-46.916,0.00
6.617,98.628,0.00
6.633,498.580,0.00
6.650,1103.668,0.00
6.667,1898.053,0.00
6.683,2682.629,0.00
6.700,3247.235,0.00
6.717,3537.569,0.00
6.733,3616.738,0.00
6.750,3520.890,0.00
6.767,3436.240,0.00
6.783,3445.224,0.00
6.800,3490.670,0.00
6.817,3463.063,0.00
6.833,3460.495,0.00
6.850,3459.753,0.00
6.867,3461.336,0.00
6.883,3460.925,0.00
6.900,3459.406,0.00
6.917,3459.298,0.00
6.933,3460.419,0.00
6.950,3463.330,0.00
6.967,3465.081,0.00
6.983,3463.951,0.00
7.000,3460.919,0.00
7.017,3458.133,0.00
7.033,3457.470,0.00
7.050,3457.731,0.00
7.067,3460.004,0.00
7.083,3461.994,0.00
7.100,3463.019,0.00
7.117,3464.156,0.00
7.133,3464.710,0.00
7.150,3464.514,0.00
7.167,3464.716,0.00
7.183,3465.763,0.00
7.200,3466.461,0.00
7.217,3466.990,0.00
7.233,3467.509,0.00
7.250,3467.449,0.00
7.267,3466.876,0.00
7.283,3466.931,0.00
7.300,3468.774,0.00
7.317,3470.376,0.00
7.333,3471.304,0.00
7.350,3471.840,0.00
7.367,3470.467,0.00
7.383,3467.318,0.00
7.400,3463.227,0.00
7.417,3457.976,0.00
7.433,3452.424,0.00
7.450,3447.044,0.00
7.467,3442.258,0.00
7.483,3436.530,0.00
7.500,3429.780,0.00
7.517,3423.386,0.00
7.533,3417.631,0.00
7.550,3412.397,0.00
7.567,3406.905,0.00
7.583,3400.054,0.00
7.600,3392.230,0.00
7.617,3384.380,0.00
7.633,3376.693,0.00
7.650,3369.055,0.00
7.667,3361.702,0.00
7.683,3354.912,0.00
7.700,3347.713,0.00
7.717,3339.907,0.00
7.733,3332.384,0.00
7.750,3324.911,0.00
7.767,3317.631,0.00
7.783,3311.014,0.00
7.800,3304.644,0.00
7.817,3297.540,0.00
7.833,3289.966,0.00
7.850,3282.616,0.00
7.867,3275.425,0.00
7.883,3268.164,0.00
7.900,3261.077,0.00
7.917,3254.161,0.00
7.933,3246.999,0.00
7.950,3239.996,0.00
7.967,3233.237,0.00
7.983,3226.668,0.00
8.000,3220.042,0.00
8.017,3213.202,0.00
8.033,3207.616,0.00
8.050,3202.445,0.00
8.067,3196.914,0.00
8.083,3191.032,0.00
8.100,3183.886,0.00
8.117,3176.907,0.00
8.133,3170.089,0.00
8.150,3163.968,0.00
8.167,3158.987,0.00
8.183,3152.252,0.00
8.200,3145.425,0.00
8.217,3137.469,0.00
8.233,3130.906,0.00
8.250,3123.883,0.00
8.267,3117.262,0.00
8.283,3111.913,0.00
8.300,3107.050,0.00
8.317,3101.951,0.00
8.333,3096.909,0.00
8.350,3090.758,0.00
8.367,3084.165,0.00
8.383,3076.561,0.00
8.400,3070.670,0.00
8.417,3065.208,0.00
8.433,3061.321,0.00
8.450,3058.140,0.00
8.467,3055.247,0.00
8.483,3050.709,0.00
8.500,3046.139,0.00
8.517,3042.947,0.00
8.533,3041.274,0.00
8.550,3039.864,0.00
8.567,3038.545,0.00
8.583,3038.183,0.00
8.600,3037.435,0.00
8.617,3036.531,0.00
8.633,3036.091,0.00
8.650,3034.887,0.00
8.667,3034.215,0.00
8.683,3035.193,0.00
8.700,3037.876,0.00
8.717,3040.041,0.00
8.733,3040.328,0.00
8.750,3040.172,0.00
8.767,3039.652,0.00
8.783,3039.401,0.00
8.800,3039.567,0.00
8.817,3038.607,0.00
8.833,3036.120,0.00
8.850,3033.007,0.00
8.867,3030.477,0.00
8.883,3027.600,0.00
8.900,3023.928,0.00
8.917,3020.192,0.00
8.933,3016.631,0.00
8.950,3013.202,0.00
8.967,3009.969,0.00
8.983,3006.015,0.00
9.000,3000.913,0.00
9.017,2996.150,0.00
9.033,2992.607,0.00
9.050,2989.846,0.00
9.067,2987.835,0.00
9.083,2985.751,0.00
9.100,2982.602,0.00
9.117,2979.549,0.00
9.133,2977.255,0.00
9.150,2974.097,0.00
9.167,2972.166,0.00
9.183,2972.533,0.00
9.200,2965.843,0.00
9.217,2958.384,0.00
9.233,2966.825,0.00
9.250,3005.854,0.00
9.267,3089.057,0.00
9.283,3198.857,0.00
9.300,3297.408,0.00
9.317,3353.480,0.00
9.333,3366.952,0.00
9.350,3360.127,0.00
9.367,3347.507,0.00
9.383,3343.501,0.00
9.400,3343.007,0.00
9.417,3334.478,0.00
9.433,3326.237,0.00
9.450,3316.046,0.00
9.467,3305.541,0.00
9.483,3296.537,0.00
9.500,3287.604,0.00
9.517,3277.946,0.00
9.533,3267.766,0.00
9.550,3254.334,0.00
9.567,3238.620,0.00
9.583,3226.126,0.00
9.600,3217.872,0.00
9.617,3220.245,0.00
9.633,3230.583,0.00
9.650,3238.857,0.00
9.667,3225.473,0.00
9.683,3205.010,0.00
9.700,3175.331,0.00
9.717,3145.777,0.00
9.733,3138.794,0.00
9.750,3159.995,0.00
9.767,3219.702,0.00
9.783,3317.447,0.00
9.800,3426.599,0.00
9.817,3467.764,0.00
9.833,3502.346,0.00
9.850,3562.986,0.00
9.867,3566.935,0.00
9.883,3446.074,0.00
9.900,3084.187,0.00
9.917,2515.441,0.00
9.933,1908.786,0.00
9.950,1412.693,0.00
9.967,1059.100,0.00
9.983,768.536,0.00
10.000,538.483,0.00
10.017,357.091,0.00
10.033,226.943,0.00
10.050,164.806,0.00
10.067,112.254,0.00
10.083,60.582,0.00
10.100,22.627,0.00
10.117,1.536,0.00
10.133,-5.222,0.00
10.150,-5.016,0.00
10.167,-3.827,0.00
10.183,-2.475,0.00
10.200,-1.161,0.00
10.217,-0.660,0.00
10.233,-0.874,0.00
10.250,-1.308,0.00
10.267,-1.414,0.00
10.283,-1.211,0.00
10.300,-1.073,0.00
10.317,-0.959,0.00
10.333,-0.794,0.00
10.350,-0.601,0.00
10.367,-0.401,0.00
10.383,-0.216,0.00
10.400,0.114,0.00
10.417,0.654,0.00
10.433,1.175,0.00
10.450,1.360,0.00
10.467,1.046,0.00
10.483,0.428,0.00
10.500,-0.112,0.00
10.517,-0.310,0.00
10.533,-0.223,0.00
10.550,-0.194,0.00
10.567,-0.313,0.00
10.583,-0.450,0.00
10.600,-0.565,0.00
10.617,-0.576,0.00
10.633,-0.427,0.00
10.650,-0.302,0.00
10.667,-0.242,0.00
10.683,-0.268,0.00
10.700,-0.405,0.00
10.717,-0.427,0.00
10.733,-0.291,0.00
10.750,-0.158,0.00
10.767,-0.178,0.00
10.783,-0.259,0.00
10.800,-0.344,0.00
10.817,-0.448,0.00
10.833,-0.501,0.00
10.850,-0.424,0.00
10.867,-0.450,0.00
10.883,-0.322,0.00
10.900,-0.186,0.00
10.917,-0.088,0.00
10.933,-0.122,0.00
10.950,-0.181,0.00
10.967,-0.292,0.00
10.983,-0.346,0.00
11.000,-0.380,0.00
11.017,-0.312,0.00
11.033,-0.204,0.00
11.050,-0.099,0.00
11.067,-0.171,0.00
11.083,-0.215,0.00
11.100,-0.366,0.00
11.117,-0.413,0.00
11.133,-0.349,0.00
11.150,-0.158,0.00
11.167,-0.061,0.00
11.183,-0.055,0.00
11.200,-0.086,0.00
11.217,-0.074,0.00
11.233,-0.112,0.00
11.250,-0.053,0.00
11.267,0.006,0.00
11.283,0.157,0.00
11.300,0.253,0.00
11.317,0.364,0.00
11.333,0.400,0.00
11.350,0.365,0.00
11.367,0.299,0.00
11.383,0.238,0.00
11.400,0.093,0.00
11.417,-0.078,0.00
11.433,-0.221,0.00
11.450,-0.300,0.00
11.467,-0.340,0.00
11.483,-0.278,0.00
11.500,-0.097,0.00
11.517,0.138,0.00
11.533,0.520,0.00
11.550,1.027,0.00
11.567,1.322,0.00
11.583,1.084,0.00
11.600,0.350,0.00
11.617,-0.519,0.00
11.633,-1.094,0.00
11.650,-1.178,0.00
11.667,-0.942,0.00
11.683,-0.765,0.00
11.700,-0.728,0.00
11.717,-0.747,0.00
11.733,-0.830,0.00
11.750,-0.898,0.00
11.767,-0.993,0.00
11.783,-1.146,0.00
11.800,-1.202,0.00
11.817,-1.098,0.00
11.833,-0.874,0.00
11.850,-0.669,0.00
11.867,-0.586,0.00
11.883,-0.668,0.00
11.900,-0.958,0.00
11.917,-1.181,0.00
11.933,-1.263,0.00
11.950,-1.309,0.00
11.967,-1.280,0.00
11.983,-1.288,0.00
12.000,-1.282,0.00
12.017,-1.269,0.00
12.033,-1.146,0.00
12.050,-0.950,0.00
12.067,-0.895,0.00
12.083,-0.947,0.00
12.100,-1.039,0.00
12.117,-1.137,0.00
12.133,-1.225,0.00
12.150,-1.293,0.00
12.167,-1.283,0.00
12.183,-1.330,0.00
12.200,-1.504,0.00
12.217,-1.884,0.00
12.233,-1.598,0.00
12.250,2.632,0.00
12.267,10.025,0.00
12.283,-4.492,0.00
12.300,-22.852,0.00
12.317,99.921,0.00
12.333,487.598,0.00
12.350,1010.419,0.00
12.367,1350.754,0.00
12.383,1270.979,0.00
12.400,831.604,0.00
12.417,326.515,0.00
12.433,34.374,0.00
12.450,-20.415,0.00
12.467,3.071,0.00
12.483,7.193,0.00
12.500,0.931,0.00
12.517,-1.665,0.00
12.533,-1.430,0.00
12.550,-1.081,0.00
12.567,-0.917,0.00
12.583,-0.783,0.00
12.600,-0.571,0.00
12.617,-0.406,0.00
12.633,-0.430,0.00
12.650,-0.618,0.00
12.667,-0.761,0.00
12.683,-0.838,1.41
12.700,-0.868,1.43
12.717,-0.776,1.45
12.733,-0.694,1.47
12.750,-0.568,1.48
12.767,-0.426,1.50
12.783,-0.384,1.52
12.800,-0.463,1.54
12.817,-0.569,1.56
12.833,-0.610,1.58
12.850,-0.603,1.60
12.867,-0.553,1.62
12.883,-0.522,1.64
12.900,-0.552,1.66
12.917,-0.534,1.68
12.933,-0.417,1.70
12.950,-0.194,1.72
12.967,0.067,1.74
12.983,0.244,1.76
13.000,0.240,1.78
13.017,0.119,1.80
13.033,0.014,1.82
13.050,-0.043,1.84
13.067,-0.034,1.86
13.083,-0.025,1.89
13.100,-0.088,1.91
13.117,-0.094,1.93
13.133,0.045,1.95
13.150,0.298,1.97
13.167,0.512,2.00
13.183,0.542,2.02
13.200,0.470,2.04
13.217,0.322,2.07
13.233,0.217,2.09
13.250,0.211,2.11
13.267,0.240,2.14
13.283,0.306,2.16
13.300,0.408,2.19
13.317,0.501,2.21
13.333,0.557,2.24
13.350,0.597,2.26
13.367,0.720,2.28
13.383,0.777,2.31
13.400,0.788,2.34
13.417,0.718,2.36
13.433,0.705,2.39
13.450,0.724,2.41
13.467,0.895,2.44
13.483,1.116,2.47
13.500,1.270,2.49
13.517,1.320,2.52
13.533,1.297,2.55
13.550,1.161,2.57
13.567,0.978,2.60
13.583,0.758,2.63
13.600,0.678,2.66
13.617,0.629,2.68
13.633,0.671,2.71
13.650,0.791,2.74
13.667,0.876,2.77
13.683,0.843,2.80
13.700,0.836,2.83
13.717,0.754,2.86
13.733,0.688,2.89
13.750,0.694,2.92
13.767,0.770,2.95
13.783,0.788,2.98
13.800,0.752,3.01
13.817,0.737,3.04
13.833,0.673,3.07
13.850,0.700,3.10
13.867,0.780,3.13
13.883,0.821,3.16
13.900,0.952,3.19
13.917,1.090,3.22
13.933,1.172,3.26
13.950,1.115,3.29
13.967,1.042,3.32
13.983,0.873,3.35
14.000,0.699,3.39
14.017,0.696,3.42
14.033,0.700,3.45
14.050,0.580,3.49
14.067,0.508,3.52
14.083,0.747,3.55
14.100,0.715,3.59
14.117,0.393,3.62
14.133,0.698,3.66
14.150,1.602,3.69
14.167,2.524,3.73
14.183,2.781,3.76
14.200,2.063,3.80
14.217,0.766,3.83
14.233,-0.164,3.87
14.250,-0.138,3.91
14.267,0.098,3.94
14.283,0.092,3.98
14.300,0.184,4.02
14.317,0.395,4.05
14.333,0.494,4.09
14.350,0.330,4.13
14.367,-0.060,4.17
14.383,-0.421,4.21
14.400,-0.577,4.24
14.417,-0.546,4.28
14.433,-0.493,4.32
14.450,-0.483,4.36
14.467,-0.448,4.40
14.483,-0.400,4.44
14.500,-0.399,4.48
14.517,-0.532,4.52
14.533,-0.746,4.56
14.550,-0.944,4.60
14.567,-1.026,4.64
14.583,-0.966,4.68
14.600,-0.949,4.72
14.617,-1.119,4.77
14.633,-1.314,4.81
14.650,-1.413,4.85
14.667,-1.349,4.89
14.683,-1.201,4.93
14.700,-1.085,4.98
14.717,-1.120,5.02
14.733,-1.286,5.06
14.750,-1.433,5.11
14.767,-1.628,5.15
14.783,-1.918,5.19
14.800,-2.041,5.24
14.817,-1.959,5.28
14.833,-1.712,5.33
14.850,-1.360,5.37
14.867,-0.996,5.42
14.883,-0.770,5.46
14.900,-0.589,5.51
14.917,-0.492,5.56
14.933,-0.460,5.60
14.950,-0.528,5.65
14.967,-0.601,5.70
14.983,-0.832,5.74
15.000,-1.092,5.79
15.017,-1.363,5.84
15.033,-1.843,5.89
15.050,-2.477,5.93
15.067,-3.052,5.98
15.083,-3.493,6.03
15.100,-3.575,6.08
15.117,-3.253,6.13
15.133,-2.452,6.18
15.150,-1.028,6.23
15.167,1.006,6.28
15.183,3.107,6.33
15.200,4.584,6.38
15.217,5.263,6.43
15.233,5.391,6.48
15.250,5.336,6.53
15.267,5.390,6.58
15.283,5.474,6.63
15.300,5.479,6.69
15.317,5.606,6.74
15.333,6.129,6.79
15.350,7.093,6.84
15.367,8.497,6.90
15.383,10.596,6.95
15.400,13.604,7.00
15.417,16.936,7.06
15.433,19.293,7.11
15.450,19.481,7.17
15.467,17.325,7.22
15.483,14.236,7.28
15.500,12.009,7.33
15.517,11.266,7.39
15.533,11.447,7.44
15.550,12.129,7.50
15.567,13.511,7.55
15.583,15.482,7.61
15.600,17.665,7.67
15.617,19.463,7.73
15.633,20.769,7.78
15.650,23.502,7.84
15.667,29.424,7.90
15.683,38.510,7.96
15.700,56.892,8.02
15.717,93.777,8.07
15.733,146.984,8.13
15.750,202.289,8.19
15.767,243.290,8.25
15.783,258.739,8.31
15.800,246.927,8.37
15.817,215.521,8.43
15.833,173.521,8.49
15.850,125.857,8.55
15.867,79.921,8.62
15.883,45.066,8.68
15.900,22.472,8.74
15.917,8.428,8.80
15.933,-0.053,8.86
15.950,-4.927,8.93
15.967,-7.537,8.99
15.983,-8.740,9.05
16.000,-9.065,9.12
16.017,-9.073,9.18
16.033,-8.953,9.24
16.050,-8.753,9.31
16.067,-8.437,9.37
16.083,-7.943,9.44
16.100,-7.512,9.50
16.117,-7.167,9.57
16.133,-6.962,9.63
16.150,-6.926,9.70
16.167,-6.886,9.77
16.183,-6.721,9.83
16.200,-6.327,9.90
16.217,-6.024,9.97
16.233,-5.840,10.03
16.250,-5.841,10.10
16.267,-5.985,10.17
16.283,-5.961,10.24
16.300,-5.795,10.31
16.317,-5.511,10.38
16.333,-5.324,10.45
16.350,-5.320,10.52
16.367,-5.237,10.59
16.383,-5.352,10.66
16.400,-5.419,10.73
16.417,-5.424,10.80
16.433,-5.376,10.87
16.450,-5.252,10.94
16.467,-5.298,11.01
16.483,-5.424,11.08
16.500,-5.509,11.15
16.517,-5.403,11.23
16.533,-4.927,11.30
16.550,-4.201,11.37
16.567,-3.240,11.44
16.583,-2.073,11.52
16.600,-0.628,11.59
16.617,0.850,11.67
16.633,1.941,11.74
16.650,1.902,11.82
16.667,0.579,11.89
16.683,-1.671,11.97
16.700,-4.004,12.04
16.717,-5.490,12.12
16.733,-6.001,12.19
16.750,-5.924,12.27
16.767,-5.612,12.35
16.783,-4.596,12.42
16.800,-2.160,12.50
16.817,2.039,12.58
16.833,8.168,12.66
16.850,16.853,12.73
16.867,28.556,12.81
16.883,41.371,12.89
16.900,50.061,12.97
16.917,49.254,13.05
16.933,37.952,13.13
16.950,21.061,13.21
16.967,5.692,13.29
16.983,-3.629,13.37
17.000,-7.223,13.45
17.017,-8.036,13.53
17.033,-8.111,13.61
17.050,-7.915,13.70
17.067,-7.433,13.78
17.083,-6.683,13.86
17.100,-5.706,13.94
17.117,-4.533,14.03
17.133,-3.286,14.11
17.150,-2.307,14.19
17.167,-1.955,14.28
17.183,-2.306,14.36
17.200,-3.100,14.44
17.217,-3.977,14.53
17.233,-4.632,14.61
17.250,-4.953,14.70
17.267,-5.082,14.79
17.283,-5.052,14.87
17.300,-4.800,14.96
17.317,-4.314,15.04
17.333,-3.705,15.13
17.350,-3.145,15.22
17.367,-2.967,15.31
17.383,-3.271,15.39
17.400,-3.794,15.48
17.417,-4.148,15.57
17.433,-4.200,15.66
17.450,-3.867,15.75
17.467,-3.465,15.84
17.483,-3.063,15.93
17.500,-2.800,16.01
17.517,-2.680,16.10
17.533,-2.622,16.20
17.550,-2.521,16.29
17.567,-2.338,16.38
17.583,-2.140,16.47
17.600,-2.082,16.56
17.617,-2.161,16.65
17.633,-2.543,16.74
17.650,-3.050,16.84
17.667,-3.602,16.93
17.683,-4.081,17.02
17.700,-4.296,17.12
17.717,-4.373,17.21
17.733,-4.316,17.30
17.750,-3.039,17.40
17.767,-4.418,17.49
17.783,-3.789,17.59
17.800,-0.749,17.68
17.817,3.261,17.78
17.833,5.976,17.87
17.850,5.857,17.97
17.867,3.163,18.06
17.883,-0.414,18.16
17.900,-2.371,18.26
17.917,-2.165,18.36
17.933,-3.483,18.45
17.950,-3.744,18.55
17.967,-3.918,18.65
17.983,-3.983,18.75
18.000,-3.936,18.85
18.017,-3.759,18.95
18.033,-3.464,19.04
18.050,-3.187,19.14
18.067,-3.035,19.24
18.083,-3.044,19.34
18.100,-3.100,19.44
18.117,-3.146,19.55
18.133,-3.093,19.65
18.150,-2.862,19.75
18.167,-2.556,19.85
18.183,-2.330,19.95
18.200,-2.191,20.05
18.217,-2.016,20.16
18.233,-1.771,20.26
18.250,-1.394,20.36
18.267,-0.973,20.47
18.283,-0.735,20.57
18.300,-0.758,20.67
18.317,-0.936,20.78
18.333,-1.115,20.88
18.350,-1.161,20.99
18.367,-0.970,21.09
18.383,-0.409,21.20
18.400,0.535,21.30
18.417,1.896,21.41
18.433,3.652,21.52
18.450,5.355,21.62
18.467,6.333,21.73
18.483,6.152,21.84
18.500,5.028,21.95
18.517,3.614,22.05
18.533,2.480,22.16
18.550,2.044,22.27
18.567,2.523,22.38
18.583,3.933,22.49
18.600,6.471,22.60
18.617,10.535,22.71
18.633,16.294,22.82
18.650,23.889,22.93
18.667,33.282,23.04
18.683,44.002,23.15
18.700,54.350,23.26
18.717,62.300,23.37
18.733,66.911,23.48
18.750,70.541,23.60
18.767,78.726,23.71
18.783,96.013,23.82
18.800,121.170,23.93
18.817,146.958,24.05
18.833,164.373,24.16
18.850,168.210,24.28
18.867,158.169,24.39
18.883,137.615,24.50
18.900,110.984,24.62
18.917,83.027,24.73
18.933,58.481,24.85
18.950,39.821,24.97
18.967,27.230,25.08
18.983,18.798,25.20
19.000,12.733,25.31
19.017,8.578,25.43
19.033,6.141,25.55
19.050,4.869,25.67
19.067,4.573,25.78
19.083,5.095,25.90
19.100,6.759,26.02
19.117,9.400,26.14
19.133,13.018,26.26
19.150,16.885,26.38
19.167,19.977,26.50
19.183,21.482,26.62
19.200,20.776,26.74
19.217,17.765,26.86
19.233,13.479,26.98
19.250,9.079,27.10
19.267,5.577,27.22
19.283,3.366,27.34
19.300,2.214,27.46
19.317,1.879,27.58
19.333,2.068,27.71
19.350,2.809,27.83
19.367,3.920,27.95
19.383,5.182,28.08
19.400,6.457,28.20
19.417,7.522,28.32
19.433,8.208,28.45
19.450,8.528,28.57
19.467,8.603,28.70
19.483,8.686,28.82
19.500,8.755,28.95
19.517,8.757,29.07
19.533,8.558,29.20
19.550,8.270,29.32
19.567,7.918,29.45
19.583,7.551,29.58
19.600,6.993,29.71
19.617,6.176,29.83
19.633,5.301,29.96
19.650,4.697,30.09
19.667,4.869,30.22
19.683,6.418,30.34
19.700,9.833,30.47
19.717,14.983,30.60
19.733,20.615,30.73
19.750,24.883,30.86
19.767,26.167,30.99
19.783,24.118,31.12
19.800,20.037,31.25
19.817,16.024,31.38
19.833,13.805,31.51
19.850,13.785,31.65
19.867,15.192,31.78
19.883,16.918,31.91
19.900,18.182,32.04
19.917,18.921,32.17
19.933,20.025,32.31
19.950,22.957,32.44
19.967,30.040,32.57
19.983,46.005,32.71
20.000,78.380,32.84
20.017,134.496,32.98
20.033,211.510,33.11
20.050,292.006,33.25
20.067,350.593,33.38
20.083,368.117,33.52
20.100,343.916,33.65
20.117,294.334,33.79
20.133,241.118,33.92
20.150,198.454,34.06
20.167,168.374,34.20
20.183,147.402,34.33
20.200,129.889,34.47
20.217,111.841,34.61
20.233,92.373,34.75
20.250,72.471,34.89
20.267,54.183,35.02
20.283,38.761,35.16
20.300,27.277,35.30
20.317,19.854,35.44
20.333,15.465,35.58
20.350,13.283,35.72
20.367,12.499,35.86
20.383,12.504,36.00
20.400,13.602,36.14
20.417,16.729,36.28
20.433,24.294,36.42
20.450,40.639,36.57
20.467,69.514,36.71
20.483,109.978,36.85
20.500,154.567,36.99
20.517,190.961,37.13
20.533,207.157,37.28
20.550,198.021,37.42
20.567,168.192,37.56
20.583,128.550,37.71
20.600,90.473,37.85
20.617,61.419,38.00
20.633,42.881,38.14
20.650,33.043,38.29
20.667,28.926,38.43
20.683,28.367,38.58
20.700,30.121,38.72
20.717,33.095,38.87
20.733,36.195,39.02
20.750,38.124,39.16
20.767,37.849,39.31
20.783,35.101,39.46
20.800,30.175,39.60
20.817,24.452,39.75
20.833,18.926,39.90
20.850,14.318,40.05
20.867,10.988,40.20
20.883,8.699,40.34
20.900,7.207,40.49
20.917,6.349,40.64
20.933,5.931,40.79
20.950,5.833,40.94
20.967,5.902,41.09
20.983,6.274,41.24
21.000,7.064,41.39
21.017,8.414,41.54
21.033,10.558,41.69
21.050,13.593,41.85
21.067,17.753,42.00
21.083,23.073,42.15
21.100,29.095,42.30
21.117,35.083,42.45
21.133,40.402,42.61
21.150,44.636,42.76
21.167,47.390,42.91
21.183,48.362,43.07
21.200,47.351,43.22
21.217,44.071,43.38
21.233,37.758,43.53
21.250,36.975,43.68
21.267,47.986,43.84
21.283,26.633,43.99
21.300,-31.391,44.15
21.317,47.717,44.31
21.333,453.756,44.46
21.350,1181.699,44.62
21.367,2029.111,44.77
21.383,2730.744,44.93
21.400,3121.537,45.09
21.417,3231.732,45.25
21.433,3216.835,45.40
21.450,3150.642,45.56
21.467,2993.771,45.72
21.483,2769.317,45.88
21.500,2519.560,46.04
21.517,2250.609,46.20
21.533,1972.384,46.35
21.550,1701.847,46.51
21.567,1446.764,46.67
21.583,1202.107,46.83
21.600,970.604,46.99
21.617,767.506,47.15
21.633,594.353,47.31
21.650,449.964,47.48
21.667,338.853,47.64
21.683,256.558,47.80
21.700,198.574,47.96
21.717,158.304,48.12
21.733,129.677,48.28
21.750,108.277,48.45
21.767,91.760,48.61
21.783,79.230,48.77
21.800,68.998,48.94
21.817,61.369,49.10
21.833,55.914,49.26
21.850,52.252,49.43
21.867,49.907,49.59
21.883,48.153,49.76
21.900,46.891,49.92
21.917,45.951,50.09
21.933,45.008,50.25
21.950,43.664,50.42
21.967,41.414,50.58
21.983,38.267,50.75
22.000,34.115,50.92
22.017,29.638,51.08
22.033,25.286,51.25
22.050,21.409,51.42
22.067,18.517,51.58
22.083,17.496,51.75
22.100,18.760,51.92
22.117,23.291,52.09
22.133,31.653,52.25
22.150,43.487,52.42
22.167,57.940,52.59
22.183,73.480,52.76
22.200,88.025,52.93
22.217,99.523,53.10
22.233,106.449,53.27
22.250,108.108,53.44
22.267,104.428,53.61
22.283,96.447,53.78
22.300,85.842,53.95
22.317,74.323,54.12
22.333,63.565,54.29
22.350,54.730,54.47
22.367,48.182,54.64
22.383,43.769,54.81
22.400,40.985,54.98
22.417,39.204,55.15
22.433,37.675,55.33
22.450,35.701,55.50
22.467,32.937,55.67
22.483,29.378,55.85
22.500,25.258,56.02
22.517,20.990,56.19
22.533,16.961,56.37
22.550,13.424,56.54
22.567,10.521,56.72
22.583,8.243,56.89
22.600,6.580,57.07
22.617,5.479,57.24
22.633,4.880,57.42
22.650,4.703,57.60
22.667,4.887,57.77
22.683,5.430,57.95
22.700,6.509,58.12
22.717,8.267,58.30
22.733,11.007,58.48
22.750,14.728,58.66
22.767,19.446,58.83
22.783,25.167,59.01
22.800,31.673,59.19
22.817,38.558,59.37
22.833,45.260,59.55
22.850,50.978,59.73
22.867,54.851,59.90
22.883,56.354,60.08
22.900,55.637,60.26
22.917,52.968,60.44
22.933,49.054,60.62
22.950,44.574,60.80
22.967,40.168,60.98
22.983,36.314,61.16
23.000,33.650,61.34
23.017,32.217,61.53
23.033,31.350,61.71
23.050,30.601,61.89
23.067,29.527,62.07
23.083,27.913,62.25
23.100,25.483,62.43
23.117,22.038,62.62
23.133,17.971,62.80
23.150,13.800,62.98
23.167,10.249,63.17
23.183,7.693,63.35
23.200,6.157,63.53
23.217,5.687,63.72
23.233,5.992,63.90
23.250,7.020,64.09
23.267,8.562,64.27
23.283,10.029,64.45
23.300,11.307,64.64
23.317,12.118,64.83
23.333,12.364,65.01
23.350,12.308,65.20
23.367,12.297,65.38
23.383,12.670,65.57
23.400,13.564,65.75
23.417,14.936,65.94
23.433,16.630,66.13
23.450,18.430,66.32
23.467,20.482,66.50
23.483,22.486,66.69
23.500,24.410,66.88
23.517,26.174,67.07
23.533,27.607,67.25
23.550,28.869,67.44
23.567,30.165,67.63
23.583,31.286,67.82
23.600,32.042,68.01
23.617,32.282,68.20
23.633,31.994,68.39
23.650,31.137,68.58
23.667,29.694,68.77
23.683,27.545,68.96
23.700,24.714,69.15
23.717,21.418,69.34
23.733,17.943,69.53
23.750,14.588,69.72
23.767,11.552,69.91
23.783,8.850,70.10
23.800,6.538,70.29
23.817,4.750,70.49
23.833,3.386,70.68
23.850,2.256,70.87
23.867,1.435,71.06
23.883,0.969,71.26
23.900,0.734,71.45
23.917,0.691,71.64
23.933,0.702,71.83
23.950,0.590,72.03
23.967,0.452,72.22
23.983,0.494,72.42
24.000,0.661,72.61
24.017,0.834,72.80
24.033,1.044,73.00
24.050,1.332,73.19
24.067,1.603,73.39
24.083,1.765,73.58
24.100,1.889,73.78
24.117,2.109,73.98
24.133,2.756,74.17
24.150,4.088,74.37
24.167,6.206,74.56
24.183,8.989,74.76
24.200,12.390,74.96
24.217,16.177,75.15
24.233,19.749,75.35
24.250,22.416,75.55
24.267,23.839,75.75
24.283,23.873,75.94
24.300,22.803,76.14
24.317,20.944,76.34
24.333,18.475,76.54
24.350,15.662,76.74
24.367,13.143,76.94
24.383,11.276,77.13
24.400,10.325,77.33
24.417,10.707,77.53
24.433,12.454,77.73
24.450,15.748,77.93
24.467,20.806,78.13
24.483,27.970,78.33
24.500,36.500,78.53
24.517,46.104,78.73
24.533,55.622,78.93
24.550,63.907,79.14
24.567,70.075,79.34
24.583,73.462,79.54
24.600,73.693,79.74
24.617,70.819,79.94
24.633,65.182,80.14
24.650,57.848,80.35
24.667,49.224,80.55
24.683,40.244,80.75
24.700,31.553,80.95
24.717,23.991,81.16
24.733,18.013,81.36
24.750,13.531,81.56
24.767,10.343,81.77
24.783,7.993,81.97
24.800,6.228,82.17
24.817,5.169,82.38
24.833,4.537,82.58
24.850,4.135,82.79
24.867,3.705,82.99
24.883,3.194,83.20
24.900,2.749,83.40
24.917,2.422,83.61
24.933,2.182,83.81
24.950,2.026,84.02
24.967,1.913,84.23
24.983,1.744,84.43
25.000,1.418,84.64
25.017,1.046,84.84
25.033,0.670,85.05
25.050,0.337,85.26
25.067,0.113,85.46
25.083,0.006,85.67
25.100,-0.060,85.88
25.117,-0.050,86.09
25.133,0.000,86.29
25.150,-0.021,86.50
25.167,-0.205,86.71
25.183,-0.517,86.92
25.200,-0.795,87.13
25.217,-0.856,87.34
25.233,-0.640,87.55
25.250,-0.345,87.75
25.267,-0.238,87.96
25.283,-0.464,88.17
25.300,-0.876,88.38
25.317,-1.198,88.59
25.333,-1.263,88.80
25.350,-1.120,89.01
25.367,-0.921,89.22
25.383,-0.700,89.43
25.400,-0.420,89.65
25.417,-0.237,89.86
25.433,-0.172,90.07
25.450,-0.165,90.28
25.467,-0.010,90.49
25.483,0.327,90.70
25.500,0.649,90.91
25.517,0.918,91.13
25.533,1.014,91.34
25.550,0.991,91.55
25.567,0.928,91.76
25.583,0.872,91.98
25.600,1.014,92.19
25.617,1.184,92.40
25.633,1.394,92.61
25.650,1.485,92.83
25.667,1.359,93.04
25.683,1.220,93.26
25.700,1.191,93.47
25.717,1.343,93.68
25.733,1.460,93.90
25.750,1.485,94.11
25.767,1.499,94.33
25.783,1.614,94.54
25.800,1.850,94.76
25.817,2.167,94.97
25.833,2.320,95.19
25.850,2.255,95.40
25.867,2.159,95.62
25.883,2.114,95.84
25.900,2.212,96.05
25.917,2.400,96.27
25.933,2.649,96.48
25.950,2.989,96.70
25.967,3.517,96.92
25.983,4.373,97.13
26.000,5.261,97.35
26.017,6.401,97.57
26.033,8.048,97.79
26.050,10.164,98.00
26.067,12.846,98.22
26.083,16.390,98.44
26.100,21.364,98.66
26.117,28.291,98.88
26.133,37.951,99.09
26.150,50.791,99.31
26.167,66.745,99.53
26.183,85.461,99.75
26.200,105.683,99.97
26.217,124.766,100.19
26.233,139.948,100.41
26.250,149.593,100.63
26.267,153.545,100.85
26.283,152.454,101.07
26.300,147.266,101.29
26.317,139.198,101.51
26.333,129.313,101.73
26.350,119.021,101.95
26.367,110.446,102.17
26.383,105.308,102.39
26.400,104.464,102.61
26.417,106.615,102.83
26.433,110.654,103.05
26.450,115.756,103.28
26.467,120.584,103.50
26.483,124.726,103.72
26.500,128.713,103.94
26.517,133.542,104.16
26.533,140.088,104.39
26.550,148.264,104.61
26.567,156.993,104.83
26.583,164.217,105.05
26.600,168.745,105.28
26.617,170.776,105.50
26.633,170.102,105.72
26.650,166.738,105.95
26.667,160.796,106.17
26.683,152.591,106.39
26.700,142.224,106.62
26.717,129.564,106.84
26.733,114.900,107.07
26.750,98.977,107.29
26.767,82.738,107.52
26.783,67.424,107.74
26.800,54.258,107.97
26.817,43.588,108.19
26.833,35.065,108.42
26.850,28.319,108.64
26.867,23.117,108.87
26.883,19.141,109.09
26.900,16.186,109.32
26.917,13.906,109.54
26.933,11.974,109.77
26.950,10.424,110.00
26.967,9.372,110.22
26.983,8.713,110.45
27.000,8.369,110.68
27.017,8.292,110.90
27.033,8.625,111.13
27.050,9.124,111.36
27.067,9.838,111.58
27.083,10.643,111.81
27.100,11.411,112.04
27.117,12.088,112.27
27.133,12.576,112.50
27.150,13.095,112.72
27.167,13.402,112.95
27.183,13.294,113.18
27.200,12.799,113.41
27.217,11.773,113.64
27.233,10.528,113.87
27.250,9.286,114.09
27.267,8.056,114.32
27.283,6.723,114.55
27.300,5.373,114.78
27.317,4.357,115.01
27.333,3.579,115.24
27.350,3.017,115.47
27.367,2.691,115.70
27.383,2.333,115.93
27.400,2.158,116.16
27.417,2.161,116.39
27.433,2.281,116.62
27.450,2.357,116.85
27.467,2.406,117.08
27.483,2.458,117.31
27.500,2.573,117.55
27.517,2.798,117.78
27.533,3.099,118.01
27.550,3.299,118.24
27.567,3.509,118.47
27.583,3.767,118.70
27.600,4.088,118.93
27.617,4.427,119.17
27.633,4.701,119.40
27.650,4.928,119.63
27.667,5.279,119.86
27.683,5.827,120.10
27.700,6.461,120.33
27.717,7.102,120.56
27.733,7.851,120.79
27.750,8.842,121.03
27.767,10.132,121.26
27.783,11.914,121.49
27.800,14.387,121.73
27.817,17.736,121.96
27.833,22.420,122.20
27.850,28.718,122.43
27.867,36.668,122.66
27.883,46.427,122.90
27.900,58.051,123.13
27.917,71.199,123.37
27.933,85.061,123.60
27.950,98.499,123.84
27.967,110.174,124.07
27.983,118.664,124.31
28.000,122.982,124.54
28.017,123.000,124.78
28.033,119.416,125.01
28.050,113.379,125.25
28.067,105.577,125.48
28.083,96.170,125.72
28.100,85.392,125.95
28.117,73.573,126.19
28.133,61.515,126.43
28.150,50.154,126.66
28.167,40.142,126.90
28.183,31.678,127.13
28.200,24.947,127.37
28.217,19.767,127.61
28.233,15.656,127.85
28.250,12.315,128.08
28.267,9.821,128.32
28.283,7.918,128.56
28.300,6.484,128.79
28.317,5.331,129.03
28.333,4.396,129.27
28.350,3.589,129.51
28.367,2.901,129.75
28.383,2.430,129.98
28.400,2.003,130.22
28.417,1.624,130.46
28.433,1.326,130.70
28.450,0.981,130.94
28.467,0.702,131.18
28.483,0.531,131.41
28.500,0.528,131.65
28.517,0.548,131.89
28.533,0.463,132.13
28.550,0.279,132.37
28.567,0.029,132.61
28.583,-0.311,132.85
28.600,-0.498,133.09
28.617,-0.648,133.33
28.633,-0.889,133.57
28.650,-1.225,133.81
28.667,-1.532,134.05
28.683,-1.962,134.29
28.700,-2.362,134.53
28.717,-2.736,134.77
28.733,-3.044,135.01
28.750,-3.434,135.25
28.767,-3.613,135.49
28.783,-3.507,135.73
28.800,-3.092,135.97
28.817,-2.203,136.21
28.833,-0.761,136.46
28.850,1.175,136.70
28.867,3.813,136.94
28.883,7.348,137.18
28.900,11.424,137.42
28.917,15.542,137.66
28.933,19.268,137.91
28.950,22.439,138.15
28.967,24.892,138.39
28.983,26.530,138.63
29.000,27.307,138.87
29.017,27.111,139.12
29.033,25.986,139.36
29.050,24.200,139.60
29.067,21.862,139.85
29.083,19.108,140.09
29.100,16.127,140.33
29.117,13.322,140.57
29.133,10.870,140.82
29.150,8.762,141.06
29.167,7.071,141.30
29.183,5.769,141.55
29.200,4.732,141.79
29.217,3.957,142.04
29.233,3.454,142.28
29.250,3.261,142.52
29.267,3.047,142.77
29.283,2.699,143.01
29.300,2.624,143.26
29.317,2.752,143.50
29.333,2.901,143.75
29.350,2.780,143.99
29.367,2.365,144.24
29.383,1.776,144.48
29.400,1.338,144.73
29.417,1.339,144.97
29.433,1.405,145.22
29.450,1.099,145.46
29.467,0.899,145.71
29.483,0.641,145.95
29.500,0.452,146.20
29.517,0.345,146.44
29.533,0.354,146.69
29.550,0.312,146.94
29.567,0.193,147.18
29.583,0.062,147.43
29.600,-0.092,147.67
29.617,-0.184,147.92
29.633,-0.208,148.17
29.650,-0.265,148.41
29.667,-0.259,148.66
29.683,-0.174,148.91
29.700,-0.094,149.15
29.717,-0.111,149.40
29.733,-0.229,149.65
29.750,-0.444,149.89
29.767,-0.518,150.14
29.783,-0.418,150.39
29.800,-0.342,150.64
29.817,-0.503,150.88
29.833,-0.581,151.13
29.850,-0.566,151.38
29.867,-0.427,151.63
29.883,-0.159,151.88
29.900,0.056,152.12
29.917,-0.271,152.37
29.933,-0.441,152.62
29.950,-0.253,152.87
29.967,0.094,153.12
29.983,0.342,153.37
30.000,0.507,153.61
30.017,0.400,153.86
30.033,0.049,154.11
30.050,-0.117,154.36
30.067,-0.015,154.61
30.083,0.114,154.86
30.100,0.484,155.11
30.117,0.919,155.36
30.133,1.043,155.61
30.150,0.841,155.86
30.167,0.690,156.11
30.183,0.773,156.36
30.200,0.770,156.61
30.217,0.826,156.85
30.233,0.938,157.10
30.250,1.107,157.35
30.267,1.250,157.61
30.283,1.175,157.86
30.300,0.834,158.11
30.317,0.380,158.36
30.333,0.189,158.61
30.350,0.308,158.86
30.367,0.288,159.11
30.383,0.078,159.36
30.400,-0.182,159.61
30.417,-0.328,159.86
30.433,-0.265,160.11
30.450,-0.198,160.36
30.467,-0.183,160.61
30.483,-0.225,160.87
30.500,-0.274,161.12
30.517,-0.217,161.37
30.533,-0.171,161.62
30.550,-0.170,161.87
30.567,-0.172,162.12
30.583,-0.218,162.37
30.600,-0.254,162.63
30.617,-0.255,162.88
30.633,-0.236,163.13
30.650,-0.205,163.38
30.667,-0.202,163.64
30.683,-0.234,163.89
30.700,-0.329,164.14
30.717,-0.416,164.39
30.733,-0.453,164.65
30.750,-0.411,164.90
30.767,-0.344,165.15
30.783,-0.338,165.40
30.800,-0.394,165.66
30.817,-0.496,165.91
30.833,-0.502,166.16
30.850,-0.403,166.42
30.867,-0.277,166.67
30.883,-0.222,166.92
30.900,-0.345,167.18
30.917,-0.398,167.43
30.933,-0.363,167.68
30.950,-0.304,167.94
30.967,-0.229,168.19
30.983,-0.215,168.44
31.000,-0.224,168.70
31.017,-0.125,168.95
31.033,0.050,169.21
31.050,0.188,169.46
31.067,0.217,169.71
31.083,0.140,169.97
31.100,-0.055,170.22
31.117,-0.246,170.48
31.133,-0.232,170.73
31.150,-0.068,170.99
31.167,0.029,171.24
31.183,0.172,171.50
31.200,0.151,171.75
31.217,0.107,172.01
31.233,0.193,172.26
31.250,0.244,172.52
31.267,0.233,172.77
31.283,0.189,173.03
31.300,0.208,173.28
31.317,0.249,173.54
31.333,0.194,173.79
31.350,0.090,174.05
31.367,0.045,174.30
31.383,0.085,174.56
31.400,0.287,174.82
31.417,0.423,175.07
31.433,0.335,175.33
31.450,0.104,175.58
31.467,-0.072,175.84
31.483,-0.063,176.10
31.500,-0.013,176.35
31.517,-0.040,176.61
31.533,-0.046,176.86
31.550,-0.037,177.12
31.567,-0.027,177.38
31.583,-0.034,177.63
31.600,-0.144,177.89
31.617,-0.320,178.15
31.633,-0.444,178.40
31.650,-0.394,178.66
31.667,-0.261,178.92
31.683,-0.143,179.17
31.700,-0.029,179.43
31.717,-0.026,179.69
31.733,-0.157,179.95
31.750,-0.213,180.20
31.767,-0.198,180.46
31.783,-0.152,180.72
31.800,-0.154,180.98
31.817,-0.215,181.23
31.833,-0.259,181.49
31.850,-0.197,181.75
31.867,-0.037,182.01
31.883,0.005,182.26
31.900,-0.111,182.52
31.917,-0.202,182.78
31.933,-0.244,183.04
31.950,-0.219,183.30
31.967,-0.182,183.55
31.983,-0.237,183.81
32.000,-0.306,184.07
32.017,-0.321,184.33
32.033,-0.244,184.59
32.050,-0.213,184.85
32.067,-0.270,185.10
32.083,-0.300,185.36
32.100,-0.312,185.62
32.117,-0.228,185.88
32.133,0.000,186.14
32.150,0.099,186.40
32.167,0.001,186.66
32.183,-0.143,186.92
32.200,-0.236,187.17
32.217,-0.267,187.43
32.233,-0.209,187.69
32.250,-0.104,187.95
32.267,-0.053,188.21
32.283,-0.033,188.47
32.300,0.007,188.73
32.317,-0.042,188.99
32.333,-0.238,189.25
32.350,-0.258,189.51
32.367,-0.095,189.77
32.383,0.124,190.03
32.400,0.147,190.29
32.417,0.099,190.55
32.433,0.065,190.81
32.450,0.138,191.07
32.467,0.223,191.33
32.483,0.320,191.59
32.500,0.254,191.85
32.517,0.117,192.11
32.533,0.007,192.37
32.550,-0.094,192.63
32.567,-0.227,192.89
32.583,-0.235,193.15
32.600,-0.152,193.41
32.617,-0.039,193.67
32.633,-0.108,193.93
32.650,-0.050,194.19
32.667,0.107,194.45
32.683,0.194,194.71
32.700,0.257,194.97
32.717,0.280,195.24
32.733,0.130,195.50
32.750,-0.049,195.76
32.767,-0.152,196.02
32.783,-0.098,196.28
32.800,0.091,196.54
32.817,0.432,196.80
32.833,0.589,197.06
32.850,0.481,197.32
32.867,0.370,197.59
32.883,0.275,197.85
32.900,0.127,198.11
32.917,-0.035,198.37
32.933,-0.207,198.63
32.950,-0.285,198.89
32.967,-0.178,199.16
32.983,-0.015,199.42
33.000,0.008,199.68
33.017,-0.069,199.94
33.033,-0.124,200.20
33.050,-0.160,200.46
33.067,-0.116,200.73
33.083,-0.022,200.99
33.100,0.040,201.25
33.117,0.020,201.51
33.133,-0.057,201.78
33.150,-0.196,202.04
33.167,-0.318,202.30
33.183,-0.328,202.56
33.200,-0.239,202.82
33.217,-0.175,203.09
33.233,-0.235,203.35
33.250,-0.340,203.61
33.267,-0.389,203.87
33.283,-0.356,204.14
33.300,-0.246,204.40
33.317,-0.160,204.66
33.333,-0.148,204.93
33.350,-0.230,205.19
33.367,-0.348,205.45
33.383,-0.337,205.71
33.400,-0.254,205.98
33.417,-0.077,206.24
33.433,0.109,206.50
33.450,0.083,206.77
33.467,-0.058,207.03
33.483,-0.189,207.29
33.500,-0.208,207.56
33.517,-0.103,207.82
33.533,0.034,208.08
33.550,0.272,208.35
33.567,0.376,208.61
33.583,0.435,208.87
33.600,0.440,209.14
33.617,0.383,209.40
33.633,0.356,209.66
33.650,0.324,209.93
33.667,0.233,210.19
33.683,0.107,210.46
33.700,-0.007,210.72
33.717,-0.030,210.98
33.733,-0.090,211.25
33.750,-0.154,211.51
33.767,-0.174,211.78
33.783,-0.073,212.04
33.800,-0.038,212.30
33.817,-0.092,212.57
33.833,-0.204,212.83
33.850,-0.283,213.10
33.867,-0.296,213.36
33.883,-0.110,213.63
33.900,0.025,213.89
33.917,-0.068,214.15
33.933,-0.207,214.42
33.950,-0.191,214.68
33.967,-0.058,214.95
33.983,0.121,215.21
34.000,0.283,215.48
34.017,0.190,215.74
34.033,-0.082,216.01
34.050,-0.212,216.27
34.067,-0.218,216.54
34.083,-0.258,216.80
34.100,-0.296,217.07
34.117,-0.228,217.33
34.133,-0.171,217.59
34.150,-0.175,217.86
34.167,-0.245,218.12
34.183,-0.345,218.39
34.200,-0.363,218.65
34.217,-0.318,218.92
34.233,-0.137,219.19
34.250,0.081,219.45
34.267,0.249,219.72
34.283,0.355,219.98
34.300,0.363,220.25
34.317,0.236,220.51
34.333,0.010,220.78
34.350,0.433,221.04
34.367,1.570,221.31
34.383,2.700,221.57
34.400,3.253,221.84
34.417,2.833,222.10
34.433,1.699,222.37
34.450,0.581,222.64
34.467,0.062,222.90
34.483,0.039,223.17
34.500,0.015,223.43
34.517,0.005,223.70
34.533,0.011,223.96
34.550,-0.059,224.23
34.567,-0.049,224.50
34.583,-0.030,224.76
34.600,-0.017,225.03
34.617,0.034,225.29
34.633,0.082,225.56
34.650,0.144,225.83
34.667,0.172,226.09
34.683,0.144,226.36
34.700,0.064,226.62
34.717,-0.014,226.89
34.733,-0.033,227.16
34.750,0.009,227.42
34.767,0.100,227.69
34.783,0.342,227.96
34.800,0.522,228.22
34.817,0.557,228.49
34.833,0.443,228.75
34.850,0.276,229.02
34.867,0.051,229.29
34.883,-0.087,229.55
34.900,-0.129,229.82
34.917,-0.078,230.09
34.933,-0.063,230.35
34.950,-0.122,230.62
34.967,-0.148,230.89
34.983,-0.105,231.15
35.000,-0.026,231.42
35.017,0.137,231.69
35.033,0.160,231.95
35.050,0.096,232.22
35.067,-0.052,232.49
35.083,-0.115,232.75
35.100,-0.153,233.02
35.117,-0.355,233.29
35.133,-0.361,233.55
35.150,-0.274,233.82
35.167,-0.262,234.09
35.183,-0.265,234.36
35.200,-0.295,234.62
35.217,-0.304,234.89
35.233,-0.325,235.16
35.250,-0.250,235.42
35.267,-0.164,235.69
35.283,-0.114,235.96
35.300,-0.119,236.23
35.317,-0.127,236.49
35.333,-0.234,236.76
35.350,-0.276,237.03
35.367,-0.219,237.30
35.383,-0.107,237.56
35.400,-0.108,237.83
35.417,-0.153,238.10
35.433,-0.136,238.36
35.450,0.021,238.63
35.467,0.135,238.90
35.483,0.131,239.17
35.500,-0.017,239.43
35.517,-0.164,239.70
35.533,-0.257,239.97
35.550,-0.169,240.24
35.567,0.014,240.50
35.583,0.202,240.77
35.600,0.351,241.04
35.617,0.449,241.31
35.633,0.516,241.58
35.650,0.478,241.84
35.667,0.477,242.11
35.683,0.420,242.38
35.700,0.329,242.65
35.717,0.299,242.91
35.733,0.337,243.18
35.750,0.325,243.45
35.767,0.201,243.72
35.783,0.072,243.99
35.800,0.044,244.25
35.817,0.066,244.52
35.833,0.092,244.79
35.850,-0.011,245.06
35.867,-0.134,245.33
35.883,-0.155,245.59
35.900,-0.035,245.86
35.917,0.154,246.13
35.933,0.234,246.40
35.950,0.250,246.67
35.967,0.257,246.93
35.983,0.170,247.20
36.000,0.013,247.47
36.017,-0.143,247.74
36.033,-0.253,248.01
36.050,-0.287,248.28
36.067,-0.228,248.54
36.083,-0.124,248.81
36.100,-0.117,249.08
36.117,-0.120,249.35
36.133,-0.059,249.62
36.150,-0.028,249.89
36.167,-0.011,250.15
36.183,0.043,250.42
36.200,0.097,250.69
36.217,0.101,250.96
36.233,0.030,251.23
36.250,-0.104,251.50
36.267,-0.298,251.76
36.283,-0.246,252.03
36.300,0.057,252.30
36.317,0.335,252.57
36.333,0.364,252.84
36.350,0.074,253.11
36.367,-0.199,253.38
36.383,-0.348,253.64
36.400,-0.323,253.91
36.417,-0.216,254.18
36.433,-0.331,254.45
36.450,-0.339,254.72
36.467,-0.245,254.99
36.483,-0.136,255.26
36.500,-0.083,255.52
36.517,-0.128,255.79
36.533,-0.100,256.06
36.550,-0.102,256.33
36.567,-0.022,256.60
36.583,0.042,256.87
36.600,-0.093,257.14
36.617,-0.196,257.41
36.633,-0.197,257.68
36.650,-0.165,257.94
36.667,-0.129,258.21
36.683,-0.174,258.48
36.700,-0.141,258.75
36.717,-0.143,259.02
36.733,-0.161,259.29
36.750,-0.101,259.56
36.767,-0.203,259.83
36.783,-0.272,260.10
36.800,-0.085,260.36
36.817,0.196,260.63
36.833,0.361,260.90
36.850,0.248,261.17
36.867,0.061,261.44
36.883,-0.109,261.71
36.900,-0.086,261.98
36.917,0.094,262.25
36.933,0.112,262.52
36.950,-0.048,262.79
36.967,-0.169,263.05
36.983,-0.217,263.32
37.000,-0.141,263.59
37.017,-0.154,263.86
37.033,-0.191,264.13
37.050,-0.203,264.40
37.067,-0.156,264.67
37.083,-0.088,264.94
37.100,-0.067,265.21
37.117,-0.150,265.48
37.133,-0.150,265.75
37.150,-0.044,266.02
37.167,0.045,266.28
37.183,0.053,266.55
37.200,0.008,266.82
37.217,-0.056,267.09
37.233,-0.056,267.36
37.250,0.015,267.63
37.267,0.040,267.90
37.283,-0.036,268.17
37.300,-0.129,268.44
37.317,-0.189,268.71
37.333,-0.236,268.98
37.350,-0.232,269.25
37.367,-0.190,269.52
37.383,-0.175,269.78
37.400,-0.177,270.05
37.417,-0.131,270.32
37.433,-0.054,270.59
37.450,0.022,270.86
37.467,0.093,271.13
37.483,0.097,271.40
37.500,0.022,271.67
37.517,-0.102,271.94
37.533,-0.131,272.21
37.550,-0.065,272.48
37.567,-0.040,272.75
37.583,0.010,273.02
37.600,-0.003,273.29
37.617,-0.050,273.56
37.633,-0.078,273.83
37.650,-0.089,274.09
37.667,-0.041,274.36
37.683,-0.019,274.63
37.700,-0.015,274.90
37.717,0.036,275.17
37.733,0.021,275.44
37.750,-0.014,275.71
37.767,-0.135,275.98
37.783,-0.214,276.25
37.800,-0.332,276.52
37.817,-0.342,276.79
37.833,-0.244,277.06
37.850,-0.185,277.33
37.867,-0.109,277.60
37.883,-0.046,277.87
37.900,-0.073,278.14
37.917,-0.101,278.41
37.933,-0.194,278.68
37.950,-0.268,278.95
37.967,-0.332,279.22
37.983,-0.311,279.48
38.000,-0.253,279.75
38.017,-0.189,280.02
38.033,-0.107,280.29
38.050,-0.119,280.56
38.067,-0.093,280.83
38.083,-0.036,281.10
38.100,-0.005,281.37
38.117,-0.051,281.64
38.133,-0.131,281.91
38.150,-0.228,282.18
38.167,-0.319,282.45
38.183,-0.336,282.72
38.200,-0.237,282.99
38.217,-0.112,283.26
38.233,-0.038,283.53
38.250,-0.008,283.80
38.267,-0.019,284.07
38.283,-0.083,284.34
38.300,-0.067,284.61
38.317,-0.002,284.88
38.333,0.019,285.14
38.350,0.021,285.41
38.367,0.037,285.68
38.383,0.050,285.95
38.400,0.080,286.22
38.417,0.171,286.49
38.433,0.241,286.76
38.450,0.156,287.03
38.467,0.117,287.30
38.483,0.133,287.57
38.500,0.108,287.84
38.517,0.096,288.11
38.533,0.137,288.38
38.550,0.232,288.65
38.567,0.306,288.92
38.583,0.333,289.19
38.600,0.262,289.46
38.617,0.075,289.73
38.633,-0.012,290.00
38.650,0.056,290.27
38.667,0.129,290.54
38.683,0.208,290.81
38.700,0.289,291.08
38.717,0.346,291.34
38.733,0.361,291.61
38.750,0.305,291.88
38.767,0.232,292.15
38.783,0.142,292.42
38.800,0.122,292.69
38.817,0.169,292.96
38.833,0.155,293.23
38.850,0.043,293.50
38.867,-0.093,293.77
38.883,-0.152,294.04
38.900,-0.105,294.31
38.917,-0.048,294.58
38.933,-0.036,294.85
38.950,-0.140,295.12
38.967,-0.230,295.39
38.983,-0.234,295.66
39.000,-0.248,295.93
39.017,-0.177,296.20
39.033,-0.041,296.47
39.050,0.041,296.73
39.067,0.069,297.00
39.083,0.072,297.27
39.100,0.040,297.54
39.117,-0.003,297.81
39.133,-0.104,298.08
39.150,-0.145,298.35
39.167,-0.197,298.62
39.183,-0.155,298.89
39.200,-0.032,299.16
39.217,-0.022,299.43
39.233,-0.102,299.70
39.250,-0.149,299.97
39.267,-0.063,300.24
39.283,0.075,300.51
39.300,0.177,300.78
39.317,0.293,301.05
39.333,0.299,301.32
39.350,0.280,301.58
39.367,0.363,301.85
39.383,0.592,302.12
39.400,0.568,302.39
39.417,0.508,302.66
39.433,0.463,302.93
39.450,0.364,303.20
39.467,0.423,303.47
39.483,0.372,303.74
39.500,0.242,304.01
39.517,0.093,304.28
39.533,-0.037,304.55
39.550,-0.047,304.82
39.567,-0.110,305.09
39.583,-0.129,305.36
39.600,-0.089,305.62
39.617,-0.077,305.89
39.633,-0.017,306.16
39.650,-0.118,306.43
39.667,-0.174,306.70
39.683,-0.211,306.97
39.700,-0.231,307.24
39.717,-0.213,307.51
39.733,-0.117,307.78
39.750,-0.026,308.05
39.767,0.168,308.32
39.783,0.451,308.59
39.800,0.724,308.86
39.817,0.828,309.12
39.833,0.759,309.39
39.850,0.507,309.66
39.867,0.190,309.93
39.883,-0.062,310.20
39.900,-0.132,310.47
39.917,-0.130,310.74
39.933,-0.036,311.01
39.950,0.135,311.28
39.967,0.227,311.55
39.983,0.251,311.82
40.000,0.230,312.08
40.017,0.167,312.35
40.033,0.093,312.62
40.050,0.010,312.89
40.067,-0.053,313.16
40.083,-0.091,313.43
40.100,-0.054,313.70
40.117,0.080,313.97
40.133,0.196,314.24
40.150,0.315,314.51
40.167,0.320,314.77
40.183,0.266,315.04
40.200,0.255,315.31
40.217,0.207,315.58
40.233,0.104,315.85
40.250,0.080,316.12
40.267,0.078,316.39
40.283,0.001,316.66
40.300,-0.113,316.93
40.317,-0.200,317.19
40.333,-0.267,317.46
40.350,-0.189,317.73
40.367,-0.029,318.00
40.383,0.084,318.27
40.400,0.045,318.54
40.417,-0.046,318.81
40.433,-0.162,319.08
40.450,-0.296,319.34
40.467,-0.302,319.61
40.483,-0.247,319.88
40.500,-0.210,320.15
40.517,-0.155,320.42
40.533,-0.096,320.69
40.550,-0.098,320.96
40.567,-0.091,321.23
40.583,-0.155,321.49
40.600,-0.299,321.76
40.617,-0.360,322.03
40.633,-0.420,322.30
40.650,-0.317,322.57
40.667,-0.237,322.84
40.683,-0.146,323.11
40.700,-0.112,323.37
40.717,-0.121,323.64
40.733,-0.101,323.91
40.750,-0.093,324.18
40.767,-0.058,324.45
40.783,0.036,324.72
40.800,-0.002,324.98
40.817,0.039,325.25
40.833,0.009,325.52
40.850,-0.037,325.79
40.867,-0.155,326.06
40.883,-0.261,326.33
40.900,-0.325,326.59
40.917,-0.282,326.86
40.933,-0.146,327.13
40.950,-0.116,327.40
40.967,-0.218,327.67
40.983,-0.342,327.94
41.000,-0.363,328.20
41.017,-0.266,328.47
41.033,-0.155,328.74
41.050,-0.057,329.01
41.067,0.021,329.28
41.083,0.031,329.55
41.100,0.030,329.81
41.117,-0.105,330.08
41.133,-0.243,330.35
41.150,-0.276,330.62
41.167,-0.220,330.89
41.183,-0.150,331.15
41.200,-0.173,331.42
41.217,-0.273,331.69
41.233,-0.378,331.96
41.250,-0.389,332.23
41.267,-0.295,332.49
41.283,-0.181,332.76
41.300,-0.066,333.03
41.317,-0.053,333.30
41.333,-0.129,333.57
41.350,-0.117,333.83
41.367,-0.038,334.10
41.383,0.020,334.37
41.400,0.055,334.64
41.417,0.070,334.91
41.433,0.084,335.17
41.450,0.148,335.44
41.467,0.308,335.71
41.483,0.486,335.98
41.500,0.520,336.24
41.517,0.486,336.51
41.533,0.506,336.78
41.550,0.505,337.05
41.567,0.567,337.32
41.583,0.721,337.58
41.600,0.799,337.85
41.617,0.682,338.12
41.633,0.448,338.39
41.650,0.262,338.65
41.667,0.133,338.92
41.683,0.110,339.19
