VERSION=1.3
ExportFileName=Factor Mix 16_2025-05-14_13-24-16_labchip_PURE_Data_E1
SampleLabel=E1
SampleName=Factor Mix 16
SampleComment=
SampleAreaConcRatio=0.010619
SampleLowerMarkerTime=12.30
SampleUpperMarkerTime=-1.00
SamplePeakTimes=12.30,15.27,15.65,18.63,19.85,20.28,20.52,20.93,21.25,21.97,22.58,24.25,25.90,26.27,27.63,29.72
SamplePeakSizes=1.102,6.998,8.335,24.196,33.501,37.201,39.274,43.116,46.152,53.383,59.989,79.470,100.808,105.791,125.033,156.061
SamplePeakQuantities=,,,12.7201,24.9673,13.4783,3.2993,6.0927,310.7766,16.1628,8.1788,10.4374,20.1959,28.4128,22.5345,3.1191
PlateFileName=2025-05-14_13-24-16_labchip_PURE
PlateAssayName=HT Protein Express 200
PlateBarCode=N/A
WellAquisitionTime=5/14/2025 1:40:54 PM 
PlateDataFrequency=60
PlateDataStartTime=11.00
PlateDataEndTime=42.00
PlateConcUnits=ng/ul
PlateSizeUnits=kDa
PlateLadderSizes=1.40,15.90,20.40,28.90,48.40,68.40,119.20
ChipID=H296P-0563N-03
Operator=ACJS
DATA
Time,Value,Size
0.000,44.125,0.00
0.017,44.191,0.00
0.033,44.260,0.00
0.050,44.315,0.00
0.067,44.287,0.00
0.083,44.196,0.00
0.100,44.161,0.00
0.117,44.086,0.00
0.133,43.939,0.00
0.150,43.681,0.00
0.167,43.328,0.00
0.183,42.964,0.00
0.200,42.551,0.00
0.217,42.113,0.00
0.233,41.577,0.00
0.250,40.892,0.00
0.267,40.123,0.00
0.283,39.309,0.00
0.300,38.537,0.00
0.317,37.850,0.00
0.333,37.162,0.00
0.350,36.416,0.00
0.367,35.652,0.00
0.383,34.970,0.00
0.400,34.396,0.00
0.417,33.876,0.00
0.433,33.367,0.00
0.450,32.845,0.00
0.467,32.277,0.00
0.483,31.706,0.00
0.500,31.103,0.00
0.517,30.514,0.00
0.533,29.953,0.00
0.550,29.504,0.00
0.567,29.135,0.00
0.583,28.768,0.00
0.600,28.315,0.00
0.617,27.870,0.00
0.633,27.450,0.00
0.650,27.130,0.00
0.667,26.850,0.00
0.683,26.535,0.00
0.700,26.173,0.00
0.717,25.760,0.00
0.733,25.397,0.00
0.750,25.044,0.00
0.767,24.735,0.00
0.783,24.424,0.00
0.800,24.115,0.00
0.817,23.820,0.00
0.833,23.560,0.00
0.850,23.229,0.00
0.867,22.892,0.00
0.883,22.565,0.00
0.900,22.316,0.00
0.917,22.131,0.00
0.933,21.964,0.00
0.950,21.760,0.00
0.967,21.551,0.00
0.983,21.359,0.00
1.000,21.215,0.00
1.017,21.073,0.00
1.033,20.906,0.00
1.050,20.706,0.00
1.067,20.512,0.00
1.083,20.327,0.00
1.100,20.131,0.00
1.117,19.978,0.00
1.133,19.866,0.00
1.150,19.745,0.00
1.167,19.605,0.00
1.183,19.459,0.00
1.200,19.294,0.00
1.217,19.122,0.00
1.233,18.983,0.00
1.250,18.912,0.00
1.267,18.840,0.00
1.283,18.791,0.00
1.300,18.688,0.00
1.317,18.513,0.00
1.333,18.306,0.00
1.350,18.159,0.00
1.367,18.073,0.00
1.383,18.020,0.00
1.400,17.927,0.00
1.417,17.793,0.00
1.433,17.647,0.00
1.450,17.581,0.00
1.467,17.511,0.00
1.483,17.424,0.00
1.500,17.233,0.00
1.517,17.092,0.00
1.533,16.993,0.00
1.550,16.910,0.00
1.567,16.857,0.00
1.583,16.764,0.00
1.600,16.707,0.00
1.617,16.678,0.00
1.633,16.666,0.00
1.650,16.614,0.00
1.667,16.475,0.00
1.683,16.272,0.00
1.700,16.046,0.00
1.717,15.882,0.00
1.733,15.807,0.00
1.750,15.774,0.00
1.767,15.779,0.00
1.783,15.759,0.00
1.800,15.678,0.00
1.817,15.528,0.00
1.833,15.338,0.00
1.850,15.192,0.00
1.867,15.125,0.00
1.883,15.116,0.00
1.900,15.102,0.00
1.917,15.020,0.00
1.933,14.902,0.00
1.950,14.834,0.00
1.967,14.805,0.00
1.983,14.760,0.00
2.000,14.693,0.00
2.017,14.648,0.00
2.033,14.600,0.00
2.050,14.513,0.00
2.067,14.392,0.00
2.083,14.293,0.00
2.100,14.194,0.00
2.117,14.166,0.00
2.133,14.104,0.00
2.150,13.986,0.00
2.167,13.882,0.00
2.183,13.807,0.00
2.200,13.786,0.00
2.217,13.754,0.00
2.233,13.641,0.00
2.250,13.553,0.00
2.267,13.467,0.00
2.283,13.423,0.00
2.300,13.368,0.00
2.317,13.323,0.00
2.333,13.251,0.00
2.350,13.165,0.00
2.367,13.095,0.00
2.383,12.996,0.00
2.400,12.909,0.00
2.417,12.834,0.00
2.433,12.814,0.00
2.450,12.755,0.00
2.467,12.665,0.00
2.483,12.589,0.00
2.500,12.494,0.00
2.517,12.387,0.00
2.533,12.298,0.00
2.550,12.243,0.00
2.567,12.225,0.00
2.583,12.225,0.00
2.600,12.230,0.00
2.617,12.174,0.00
2.633,12.074,0.00
2.650,12.005,0.00
2.667,11.937,0.00
2.683,11.855,0.00
2.700,11.791,0.00
2.717,11.745,0.00
2.733,11.677,0.00
2.750,11.598,0.00
2.767,11.531,0.00
2.783,11.457,0.00
2.800,11.384,0.00
2.817,11.308,0.00
2.833,11.249,0.00
2.850,11.180,0.00
2.867,11.137,0.00
2.883,11.115,0.00
2.900,11.048,0.00
2.917,10.963,0.00
2.933,10.905,0.00
2.950,10.843,0.00
2.967,10.869,0.00
2.983,10.870,0.00
3.000,10.843,0.00
3.017,10.741,0.00
3.033,10.600,0.00
3.050,10.469,0.00
3.067,10.392,0.00
3.083,10.396,0.00
3.100,10.419,0.00
3.117,10.384,0.00
3.133,10.312,0.00
3.150,10.185,0.00
3.167,10.121,0.00
3.183,10.106,0.00
3.200,9.988,0.00
3.217,9.668,0.00
3.233,9.127,0.00
3.250,8.464,0.00
3.267,7.856,0.00
3.283,7.373,0.00
3.300,6.958,0.00
3.317,6.566,0.00
3.333,6.224,0.00
3.350,5.936,0.00
3.367,5.702,0.00
3.383,5.510,0.00
3.400,5.335,0.00
3.417,5.191,0.00
3.433,5.098,0.00
3.450,5.031,0.00
3.467,4.975,0.00
3.483,4.923,0.00
3.500,4.862,0.00
3.517,4.796,0.00
3.533,4.725,0.00
3.550,4.690,0.00
3.567,4.696,0.00
3.583,4.780,0.00
3.600,4.863,0.00
3.617,4.851,0.00
3.633,4.769,0.00
3.650,4.642,0.00
3.667,4.558,0.00
3.683,4.588,0.00
3.700,4.621,0.00
3.717,4.643,0.00
3.733,4.648,0.00
3.750,4.647,0.00
3.767,4.604,0.00
3.783,4.567,0.00
3.800,4.548,0.00
3.817,4.517,0.00
3.833,4.501,0.00
3.850,4.530,0.00
3.867,4.515,0.00
3.883,4.517,0.00
3.900,4.510,0.00
3.917,4.484,0.00
3.933,4.442,0.00
3.950,4.406,0.00
3.967,4.371,0.00
3.983,4.344,0.00
4.000,4.311,0.00
4.017,4.309,0.00
4.033,4.285,0.00
4.050,4.231,0.00
4.067,4.128,0.00
4.083,4.044,0.00
4.100,3.998,0.00
4.117,4.040,0.00
4.133,4.091,0.00
4.150,4.065,0.00
4.167,3.984,0.00
4.183,3.915,0.00
4.200,3.886,0.00
4.217,3.899,0.00
4.233,3.935,0.00
4.250,3.939,0.00
4.267,3.896,0.00
4.283,3.839,0.00
4.300,3.799,0.00
4.317,3.747,0.00
4.333,3.786,0.00
4.350,3.865,0.00
4.367,3.905,0.00
4.383,3.902,0.00
4.400,3.871,0.00
4.417,3.843,0.00
4.433,3.883,0.00
4.450,3.944,0.00
4.467,3.953,0.00
4.483,3.868,0.00
4.500,3.757,0.00
4.517,3.691,0.00
4.533,3.625,0.00
4.550,3.582,0.00
4.567,3.573,0.00
4.583,3.600,0.00
4.600,3.713,0.00
4.617,3.788,0.00
4.633,3.838,0.00
4.650,3.841,0.00
4.667,3.902,0.00
4.683,4.048,0.00
4.700,4.216,0.00
4.717,4.358,0.00
4.733,4.477,0.00
4.750,4.637,0.00
4.767,4.839,0.00
4.783,5.081,0.00
4.800,5.306,0.00
4.817,5.503,0.00
4.833,5.715,0.00
4.850,5.944,0.00
4.867,6.212,0.00
4.883,6.494,0.00
4.900,6.753,0.00
4.917,6.989,0.00
4.933,7.190,0.00
4.950,7.382,0.00
4.967,7.584,0.00
4.983,7.810,0.00
5.000,8.084,0.00
5.017,8.377,0.00
5.033,8.664,0.00
5.050,8.912,0.00
5.067,9.083,0.00
5.083,9.244,0.00
5.100,9.439,0.00
5.117,9.608,0.00
5.133,9.691,0.00
5.150,9.715,0.00
5.167,9.697,0.00
5.183,9.731,0.00
5.200,9.770,0.00
5.217,9.869,0.00
5.233,9.934,0.00
5.250,10.019,0.00
5.267,10.102,0.00
5.283,10.040,0.00
5.300,10.131,0.00
5.317,10.295,0.00
5.333,10.265,0.00
5.350,9.561,0.00
5.367,8.346,0.00
5.383,7.500,0.00
5.400,7.310,0.00
5.417,7.506,0.00
5.433,7.469,0.00
5.450,6.795,0.00
5.467,5.943,0.00
5.483,5.413,0.00
5.500,5.377,0.00
5.517,5.436,0.00
5.533,5.389,0.00
5.550,5.284,0.00
5.567,5.213,0.00
5.583,5.161,0.00
5.600,5.136,0.00
5.617,5.177,0.00
5.633,5.249,0.00
5.650,5.319,0.00
5.667,5.339,0.00
5.683,5.325,0.00
5.700,5.228,0.00
5.717,5.063,0.00
5.733,4.951,0.00
5.750,4.877,0.00
5.767,4.853,0.00
5.783,4.936,0.00
5.800,5.016,0.00
5.817,4.988,0.00
5.833,4.887,0.00
5.850,4.800,0.00
5.867,4.736,0.00
5.883,4.674,0.00
5.900,4.654,0.00
5.917,4.642,0.00
5.933,4.601,0.00
5.950,4.538,0.00
5.967,4.449,0.00
5.983,4.348,0.00
6.000,4.212,0.00
6.017,4.108,0.00
6.033,4.063,0.00
6.050,3.978,0.00
6.067,3.963,0.00
6.083,4.062,0.00
6.100,4.146,0.00
6.117,3.999,0.00
6.133,3.857,0.00
6.150,3.677,0.00
6.167,3.558,0.00
6.183,3.576,0.00
6.200,3.624,0.00
6.217,3.587,0.00
6.233,3.469,0.00
6.250,3.324,0.00
6.267,3.176,0.00
6.283,2.973,0.00
6.300,2.833,0.00
6.317,2.727,0.00
6.333,2.722,0.00
6.350,2.655,0.00
6.367,2.550,0.00
6.383,2.588,0.00
6.400,2.744,0.00
6.417,2.911,0.00
6.433,2.911,0.00
6.450,2.552,0.00
6.467,-0.616,0.00
6.483,2.499,0.00
6.500,19.232,0.00
6.517,8.937,0.00
6.533,-33.097,0.00
6.550,13.506,0.00
6.567,245.042,0.00
6.583,778.378,0.00
6.600,1690.059,0.00
6.617,2707.234,0.00
6.633,3458.055,0.00
6.650,3755.645,0.00
6.667,3693.478,0.00
6.683,3497.194,0.00
6.700,3368.367,0.00
6.717,3398.324,0.00
6.733,3463.327,0.00
6.750,3424.234,0.00
6.767,3423.911,0.00
6.783,3422.020,0.00
6.800,3423.332,0.00
6.817,3425.048,0.00
6.833,3427.689,0.00
6.850,3427.788,0.00
6.867,3426.756,0.00
6.883,3424.828,0.00
6.900,3423.777,0.00
6.917,3422.863,0.00
6.933,3422.865,0.00
6.950,3424.344,0.00
6.967,3425.197,0.00
6.983,3424.372,0.00
7.000,3423.979,0.00
7.017,3422.885,0.00
7.033,3421.272,0.00
7.050,3421.587,0.00
7.067,3423.080,0.00
7.083,3424.289,0.00
7.100,3424.963,0.00
7.117,3425.225,0.00
7.133,3425.127,0.00
7.150,3425.475,0.00
7.167,3426.732,0.00
7.183,3428.541,0.00
7.200,3429.513,0.00
7.217,3430.274,0.00
7.233,3430.548,0.00
7.250,3430.192,0.00
7.267,3429.861,0.00
7.283,3429.759,0.00
7.300,3429.824,0.00
7.317,3429.522,0.00
7.333,3427.856,0.00
7.350,3423.859,0.00
7.367,3418.355,0.00
7.383,3412.602,0.00
7.400,3405.849,0.00
7.417,3398.348,0.00
7.433,3391.129,0.00
7.450,3384.747,0.00
7.467,3378.779,0.00
7.483,3373.825,0.00
7.500,3368.095,0.00
7.517,3361.455,0.00
7.533,3355.834,0.00
7.550,3351.114,0.00
7.567,3344.270,0.00
7.583,3337.623,0.00
7.600,3330.277,0.00
7.617,3324.115,0.00
7.633,3318.621,0.00
7.650,3313.614,0.00
7.667,3306.369,0.00
7.683,3297.916,0.00
7.700,3290.837,0.00
7.717,3283.298,0.00
7.733,3276.413,0.00
7.750,3269.335,0.00
7.767,3262.635,0.00
7.783,3256.397,0.00
7.800,3249.402,0.00
7.817,3242.134,0.00
7.833,3234.186,0.00
7.850,3226.595,0.00
7.867,3219.681,0.00
7.883,3212.395,0.00
7.900,3204.889,0.00
7.917,3197.331,0.00
7.933,3191.675,0.00
7.950,3186.813,0.00
7.967,3180.892,0.00
7.983,3173.640,0.00
8.000,3165.566,0.00
8.017,3158.092,0.00
8.033,3151.991,0.00
8.050,3146.192,0.00
8.067,3139.693,0.00
8.083,3132.558,0.00
8.100,3126.270,0.00
8.117,3121.206,0.00
8.133,3116.013,0.00
8.150,3109.747,0.00
8.167,3102.702,0.00
8.183,3096.047,0.00
8.200,3089.573,0.00
8.217,3084.031,0.00
8.233,3078.715,0.00
8.250,3072.995,0.00
8.267,3066.960,0.00
8.283,3060.249,0.00
8.300,3053.042,0.00
8.317,3046.221,0.00
8.333,3040.447,0.00
8.350,3036.099,0.00
8.367,3031.231,0.00
8.383,3024.961,0.00
8.400,3018.715,0.00
8.417,3013.205,0.00
8.433,3009.703,0.00
8.450,3006.184,0.00
8.467,3003.356,0.00
8.483,3000.386,0.00
8.500,2997.636,0.00
8.517,2996.058,0.00
8.533,2995.047,0.00
8.550,2994.180,0.00
8.567,2994.187,0.00
8.583,2993.132,0.00
8.600,2992.251,0.00
8.617,2990.867,0.00
8.633,2990.594,0.00
8.650,2991.148,0.00
8.667,2992.276,0.00
8.683,2993.929,0.00
8.700,2994.494,0.00
8.717,2994.281,0.00
8.733,2994.094,0.00
8.750,2993.064,0.00
8.767,2992.166,0.00
8.783,2991.549,0.00
8.800,2990.735,0.00
8.817,2988.854,0.00
8.833,2985.468,0.00
8.850,2981.270,0.00
8.867,2976.611,0.00
8.883,2972.473,0.00
8.900,2969.547,0.00
8.917,2966.563,0.00
8.933,2962.933,0.00
8.950,2958.938,0.00
8.967,2954.495,0.00
8.983,2950.624,0.00
9.000,2947.927,0.00
9.017,2944.999,0.00
9.033,2942.048,0.00
9.050,2938.972,0.00
9.067,2936.030,0.00
9.083,2932.491,0.00
9.100,2929.908,0.00
9.117,2927.592,0.00
9.133,2924.785,0.00
9.150,2920.112,0.00
9.167,2921.531,0.00
9.183,2915.064,0.00
9.200,2903.624,0.00
9.217,2904.718,0.00
9.233,2927.857,0.00
9.250,2996.862,0.00
9.267,3104.109,0.00
9.283,3209.855,0.00
9.300,3277.989,0.00
9.317,3298.925,0.00
9.333,3297.214,0.00
9.350,3285.524,0.00
9.367,3280.921,0.00
9.383,3283.088,0.00
9.400,3277.364,0.00
9.417,3270.150,0.00
9.433,3262.397,0.00
9.450,3253.609,0.00
9.467,3244.289,0.00
9.483,3234.604,0.00
9.500,3226.169,0.00
9.517,3217.266,0.00
9.533,3206.374,0.00
9.550,3195.037,0.00
9.567,3184.195,0.00
9.583,3179.595,0.00
9.600,3184.423,0.00
9.617,3191.394,0.00
9.633,3187.979,0.00
9.650,3171.494,0.00
9.667,3144.555,0.00
9.683,3111.312,0.00
9.700,3088.433,0.00
9.717,3092.345,0.00
9.733,3130.146,0.00
9.750,3205.632,0.00
9.767,3307.112,0.00
9.783,3389.352,0.00
9.800,3421.078,0.00
9.817,3464.402,0.00
9.833,3510.733,0.00
9.850,3474.908,0.00
9.867,3280.891,0.00
9.883,2842.839,0.00
9.900,2248.473,0.00
9.917,1664.185,0.00
9.933,1211.078,0.00
9.950,891.820,0.00
9.967,622.954,0.00
9.983,426.932,0.00
10.000,277.039,0.00
10.017,174.708,0.00
10.033,135.400,0.00
10.050,76.927,0.00
10.067,34.420,0.00
10.083,6.911,0.00
10.100,-4.635,0.00
10.117,-5.884,0.00
10.133,-5.104,0.00
10.150,-4.807,0.00
10.167,-3.692,0.00
10.183,-2.759,0.00
10.200,-2.336,0.00
10.217,-2.091,0.00
10.233,-1.922,0.00
10.250,-1.693,0.00
10.267,-1.350,0.00
10.283,-1.159,0.00
10.300,-1.080,0.00
10.317,-0.983,0.00
10.333,-0.825,0.00
10.350,-0.681,0.00
10.367,-0.582,0.00
10.383,-0.448,0.00
10.400,-0.218,0.00
10.417,0.111,0.00
10.433,0.480,0.00
10.450,0.629,0.00
10.467,0.351,0.00
10.483,-0.136,0.00
10.500,-0.563,0.00
10.517,-0.751,0.00
10.533,-0.817,0.00
10.550,-1.113,0.00
10.567,-1.025,0.00
10.583,-0.436,0.00
10.600,0.269,0.00
10.617,0.620,0.00
10.633,0.286,0.00
10.650,-0.488,0.00
10.667,-1.157,0.00
10.683,-1.286,0.00
10.700,-0.882,0.00
10.717,-0.906,0.00
10.733,-0.886,0.00
10.750,-0.896,0.00
10.767,-0.898,0.00
10.783,-0.869,0.00
10.800,-0.880,0.00
10.817,-0.958,0.00
10.833,-1.030,0.00
10.850,-1.020,0.00
10.867,-0.940,0.00
10.883,-0.889,0.00
10.900,-0.886,0.00
10.917,-0.887,0.00
10.933,-0.867,0.00
10.950,-0.819,0.00
10.967,-0.763,0.00
10.983,-0.761,0.00
11.000,-0.775,0.00
11.017,-0.793,0.00
11.033,-0.796,0.00
11.050,-0.725,0.00
11.067,-0.590,0.00
11.083,-0.282,0.00
11.100,0.181,0.00
11.117,0.713,0.00
11.133,1.064,0.00
11.150,1.025,0.00
11.167,0.694,0.00
11.183,0.286,0.00
11.200,0.022,0.00
11.217,-0.033,0.00
11.233,-0.043,0.00
11.250,-0.083,0.00
11.267,-0.131,0.00
11.283,-0.204,0.00
11.300,-0.267,0.00
11.317,-0.301,0.00
11.333,-0.225,0.00
11.350,-0.084,0.00
11.367,-0.047,0.00
11.383,-0.127,0.00
11.400,-0.292,0.00
11.417,-0.460,0.00
11.433,-0.563,0.00
11.450,-0.649,0.00
11.467,-0.628,0.00
11.483,-0.444,0.00
11.500,-0.251,0.00
11.517,-0.022,0.00
11.533,0.456,0.00
11.550,0.889,0.00
11.567,0.821,0.00
11.583,0.175,0.00
11.600,-0.725,0.00
11.617,-1.512,0.00
11.633,-1.721,0.00
11.650,-1.420,0.00
11.667,-1.255,0.00
11.683,-1.307,0.00
11.700,-1.312,0.00
11.717,-1.264,0.00
11.733,-1.210,0.00
11.750,-1.147,0.00
11.767,-1.222,0.00
11.783,-1.323,0.00
11.800,-1.353,0.00
11.817,-1.277,0.00
11.833,-1.166,0.00
11.850,-1.114,0.00
11.867,-1.180,0.00
11.883,-1.328,0.00
11.900,-1.462,0.00
11.917,-1.549,0.00
11.933,-1.646,0.00
11.950,-1.706,0.00
11.967,-1.694,0.00
11.983,-1.573,0.00
12.000,-1.385,0.00
12.017,-1.307,0.00
12.033,-1.395,0.00
12.050,-1.559,0.00
12.067,-1.669,0.00
12.083,-1.647,0.00
12.100,-1.541,0.00
12.117,-1.476,0.00
12.133,-1.505,0.00
12.150,-1.601,0.00
12.167,-1.666,0.00
12.183,-1.773,0.00
12.200,-2.016,0.00
12.217,-2.133,0.00
12.233,-0.205,0.00
12.250,6.177,0.00
12.267,6.034,0.00
12.283,-14.988,0.00
12.300,11.607,0.00
12.317,246.682,0.00
12.333,713.796,0.00
12.350,1186.636,0.00
12.367,1360.846,0.00
12.383,1107.292,0.00
12.400,607.673,0.00
12.417,175.310,0.00
12.433,-6.993,0.00
12.450,-12.148,0.00
12.467,6.196,0.00
12.483,5.065,0.00
12.500,-0.464,0.00
12.517,-1.849,0.00
12.533,-1.582,0.00
12.550,-1.241,0.00
12.567,-1.062,0.00
12.583,-0.965,0.00
12.600,-0.769,0.00
12.617,-0.514,0.00
12.633,-0.325,0.00
12.650,-0.369,0.00
12.667,-0.623,0.00
12.683,-0.826,1.41
12.700,-0.826,1.43
12.717,-0.746,1.45
12.733,-0.751,1.47
12.750,-0.884,1.48
12.767,-0.974,1.50
12.783,-0.922,1.52
12.800,-0.837,1.54
12.817,-0.796,1.56
12.833,-0.825,1.58
12.850,-0.832,1.60
12.867,-0.744,1.62
12.883,-0.673,1.64
12.900,-0.650,1.66
12.917,-0.630,1.68
12.933,-0.621,1.70
12.950,-0.583,1.72
12.967,-0.460,1.74
12.983,-0.231,1.76
13.000,0.014,1.78
13.017,0.076,1.80
13.033,-0.095,1.82
13.050,-0.287,1.84
13.067,-0.381,1.86
13.083,-0.319,1.89
13.100,-0.079,1.91
13.117,0.075,1.93
13.133,0.101,1.95
13.150,0.017,1.97
13.167,-0.035,2.00
13.183,0.003,2.02
13.200,0.048,2.04
13.217,0.141,2.07
13.233,0.174,2.09
13.250,0.152,2.11
13.267,0.246,2.14
13.283,0.408,2.16
13.300,0.475,2.19
13.317,0.462,2.21
13.333,0.423,2.24
13.350,0.433,2.26
13.367,0.511,2.28
13.383,0.604,2.31
13.400,0.745,2.34
13.417,0.838,2.36
13.433,0.939,2.39
13.450,0.979,2.41
13.467,0.994,2.44
13.483,0.988,2.47
13.500,0.976,2.49
13.517,0.986,2.52
13.533,0.970,2.55
13.550,0.899,2.57
13.567,0.880,2.60
13.583,0.956,2.63
13.600,1.022,2.66
13.617,1.033,2.68
13.633,1.043,2.71
13.650,1.067,2.74
13.667,1.008,2.77
13.683,1.019,2.80
13.700,1.119,2.83
13.717,1.189,2.86
13.733,1.256,2.89
13.750,1.319,2.92
13.767,1.370,2.95
13.783,1.373,2.98
13.800,1.455,3.01
13.817,1.489,3.04
13.833,1.446,3.07
13.850,1.406,3.10
13.867,1.506,3.13
13.883,1.602,3.16
13.900,1.706,3.19
13.917,1.684,3.22
13.933,1.589,3.26
13.950,1.404,3.29
13.967,1.335,3.32
13.983,1.145,3.35
14.000,1.104,3.39
14.017,1.187,3.42
14.033,1.290,3.45
14.050,1.263,3.49
14.067,1.175,3.52
14.083,1.183,3.55
14.100,1.277,3.59
14.117,1.363,3.62
14.133,1.410,3.66
14.150,1.293,3.69
14.167,1.106,3.73
14.183,0.933,3.76
14.200,0.777,3.80
14.217,0.639,3.83
14.233,0.532,3.87
14.250,0.477,3.91
14.267,0.492,3.94
14.283,0.491,3.98
14.300,0.450,4.02
14.317,0.392,4.05
14.333,0.330,4.09
14.350,0.315,4.13
14.367,0.371,4.17
14.383,0.447,4.21
14.400,0.424,4.24
14.417,0.245,4.28
14.433,0.074,4.32
14.450,0.017,4.36
14.467,-0.048,4.40
14.483,-0.091,4.44
14.500,-0.115,4.48
14.517,-0.105,4.52
14.533,-0.115,4.56
14.550,-0.147,4.60
14.567,-0.260,4.64
14.583,-0.455,4.68
14.600,-0.559,4.72
14.617,-0.604,4.77
14.633,-0.683,4.81
14.650,-0.716,4.85
14.667,-0.663,4.89
14.683,-0.593,4.93
14.700,-0.696,4.98
14.717,-0.911,5.02
14.733,-1.134,5.06
14.750,-1.212,5.11
14.767,-1.350,5.15
14.783,-1.470,5.19
14.800,-1.421,5.24
14.817,-1.084,5.28
14.833,-0.572,5.33
14.850,0.112,5.37
14.867,1.036,5.42
14.883,1.996,5.46
14.900,2.684,5.51
14.917,2.928,5.56
14.933,2.533,5.60
14.950,1.776,5.65
14.967,1.029,5.70
14.983,0.632,5.74
15.000,0.311,5.79
15.017,-0.130,5.84
15.033,-0.591,5.89
15.050,-1.037,5.93
15.067,-1.374,5.98
15.083,-1.315,6.03
15.100,-0.580,6.08
15.117,0.984,6.13
15.133,3.334,6.18
15.150,6.106,6.23
15.167,8.642,6.28
15.183,10.427,6.33
15.200,11.413,6.38
15.217,11.790,6.43
15.233,11.889,6.48
15.250,11.825,6.53
15.267,11.680,6.58
15.283,11.735,6.63
15.300,12.302,6.69
15.317,13.508,6.74
15.333,15.117,6.79
15.350,17.230,6.84
15.367,19.958,6.90
15.383,22.630,6.95
15.400,24.285,7.00
15.417,23.897,7.06
15.433,21.094,7.11
15.450,16.913,7.17
15.467,13.596,7.22
15.483,12.136,7.28
15.500,12.438,7.33
15.517,13.568,7.39
15.533,15.127,7.44
15.550,16.865,7.50
15.567,18.722,7.55
15.583,20.592,7.61
15.600,21.752,7.67
15.617,22.311,7.73
15.633,25.016,7.78
15.650,31.619,7.84
15.667,41.406,7.90
15.683,58.963,7.96
15.700,93.432,8.02
15.717,145.123,8.07
15.733,203.656,8.13
15.750,257.197,8.19
15.767,295.647,8.25
15.783,311.908,8.31
15.800,304.341,8.37
15.817,274.174,8.43
15.833,223.958,8.49
15.850,163.370,8.55
15.867,107.536,8.62
15.883,65.162,8.68
15.900,35.738,8.74
15.917,16.481,8.80
15.933,5.060,8.86
15.950,-1.223,8.93
15.967,-4.614,8.99
15.983,-6.352,9.05
16.000,-7.124,9.12
16.017,-7.285,9.18
16.033,-7.163,9.24
16.050,-6.900,9.31
16.067,-6.513,9.37
16.083,-5.934,9.44
16.100,-5.461,9.50
16.117,-4.970,9.57
16.133,-4.578,9.63
16.150,-4.426,9.70
16.167,-4.419,9.77
16.183,-4.384,9.83
16.200,-4.305,9.90
16.217,-4.278,9.97
16.233,-4.179,10.03
16.250,-4.047,10.10
16.267,-4.072,10.17
16.283,-4.018,10.24
16.300,-3.818,10.31
16.317,-3.728,10.38
16.333,-3.702,10.45
16.350,-3.667,10.52
16.367,-3.620,10.59
16.383,-3.634,10.66
16.400,-3.640,10.73
16.417,-3.699,10.80
16.433,-3.797,10.87
16.450,-3.835,10.94
16.467,-3.788,11.01
16.483,-3.731,11.08
16.500,-3.672,11.15
16.517,-3.507,11.23
16.533,-3.279,11.30
16.550,-3.038,11.37
16.567,-2.679,11.44
16.583,-2.283,11.52
16.600,-1.904,11.59
16.617,-1.630,11.67
16.633,-1.673,11.74
16.650,-2.089,11.82
16.667,-2.718,11.89
16.683,-3.250,11.97
16.700,-3.464,12.04
16.717,-3.399,12.12
16.733,-3.198,12.19
16.750,-3.000,12.27
16.767,-2.804,12.35
16.783,-2.332,12.42
16.800,-1.011,12.50
16.817,1.416,12.58
16.833,4.445,12.66
16.850,7.098,12.73
16.867,8.276,12.81
16.883,7.340,12.89
16.900,4.686,12.97
16.917,1.501,13.05
16.933,-1.159,13.13
16.950,-2.841,13.21
16.967,-3.365,13.29
16.983,-3.303,13.37
17.000,-3.114,13.45
17.017,-2.911,13.53
17.033,-2.640,13.61
17.050,-2.344,13.70
17.067,-1.994,13.78
17.083,-1.731,13.86
17.100,-1.534,13.94
17.117,-1.147,14.03
17.133,-0.670,14.11
17.150,-0.398,14.19
17.167,-0.533,14.28
17.183,-0.990,14.36
17.200,-1.507,14.44
17.217,-1.882,14.53
17.233,-1.999,14.61
17.250,-2.026,14.70
17.267,-1.987,14.79
17.283,-1.874,14.87
17.300,-1.692,14.96
17.317,-1.515,15.04
17.333,-1.456,15.13
17.350,-1.469,15.22
17.367,-1.475,15.31
17.383,-1.435,15.39
17.400,-1.398,15.48
17.417,-1.439,15.57
17.433,-1.481,15.66
17.450,-1.463,15.75
17.467,-1.339,15.84
17.483,-1.086,15.93
17.500,-0.859,16.01
17.517,-0.780,16.10
17.533,-0.778,16.20
17.550,-0.727,16.29
17.567,-0.662,16.38
17.583,-0.595,16.47
17.600,-0.497,16.56
17.617,-0.489,16.65
17.633,-0.546,16.74
17.650,-0.610,16.84
17.667,-0.713,16.93
17.683,-0.796,17.02
17.700,-0.796,17.12
17.717,-0.745,17.21
17.733,-0.709,17.30
17.750,-0.697,17.40
17.767,-0.584,17.49
17.783,-0.420,17.59
17.800,-0.030,17.68
17.817,0.519,17.78
17.833,0.990,17.87
17.850,1.141,17.97
17.867,0.922,18.06
17.883,0.475,18.16
17.900,0.076,18.26
17.917,-0.143,18.36
17.933,-0.216,18.45
17.950,-0.181,18.55
17.967,-0.228,18.65
17.983,-0.265,18.75
18.000,-0.259,18.85
18.017,-0.210,18.95
18.033,-0.148,19.04
18.050,-0.111,19.14
18.067,-0.131,19.24
18.083,-0.125,19.34
18.100,0.006,19.44
18.117,0.164,19.55
18.133,0.237,19.65
18.150,0.320,19.75
18.167,0.461,19.85
18.183,0.585,19.95
18.200,0.688,20.05
18.217,0.788,20.16
18.233,0.826,20.26
18.250,0.831,20.36
18.267,0.894,20.47
18.283,0.906,20.57
18.300,0.846,20.67
18.317,0.892,20.78
18.333,1.011,20.88
18.350,1.176,20.99
18.367,1.320,21.09
18.383,1.508,21.20
18.400,1.769,21.30
18.417,2.187,21.41
18.433,2.653,21.52
18.450,2.982,21.62
18.467,3.135,21.73
18.483,3.065,21.84
18.500,2.609,21.95
18.517,2.426,22.05
18.533,2.526,22.16
18.550,2.801,22.27
18.567,3.122,22.38
18.583,3.445,22.49
18.600,3.903,22.60
18.617,4.678,22.71
18.633,6.153,22.82
18.650,8.335,22.93
18.667,10.974,23.04
18.683,14.014,23.15
18.700,16.588,23.26
18.717,18.210,23.37
18.733,18.817,23.48
18.750,19.364,23.60
18.767,21.583,23.71
18.783,26.148,23.82
18.800,32.116,23.93
18.817,37.283,24.05
18.833,39.648,24.16
18.850,38.395,24.28
18.867,34.170,24.39
18.883,28.374,24.50
18.900,22.243,24.62
18.917,16.716,24.73
18.933,12.329,24.85
18.950,9.173,24.97
18.967,7.041,25.08
18.983,5.569,25.20
19.000,4.564,25.31
19.017,3.909,25.43
19.033,3.474,25.55
19.050,3.253,25.67
19.067,3.293,25.78
19.083,3.618,25.90
19.100,4.143,26.02
19.117,4.779,26.14
19.133,5.458,26.26
19.150,6.084,26.38
19.167,6.678,26.50
19.183,7.030,26.62
19.200,6.871,26.74
19.217,6.287,26.86
19.233,5.481,26.98
19.250,4.611,27.10
19.267,3.828,27.22
19.283,3.284,27.34
19.300,2.891,27.46
19.317,2.707,27.58
19.333,2.788,27.71
19.350,2.949,27.83
19.367,3.199,27.95
19.383,3.684,28.08
19.400,4.263,28.20
19.417,4.676,28.32
19.433,4.663,28.45
19.450,4.519,28.57
19.467,4.388,28.70
19.483,4.489,28.82
19.500,4.692,28.95
19.517,4.686,29.07
19.533,4.443,29.20
19.550,4.127,29.32
19.567,4.010,29.45
19.583,4.003,29.58
19.600,3.948,29.71
19.617,3.743,29.83
19.633,3.438,29.96
19.650,3.272,30.09
19.667,3.439,30.22
19.683,4.043,30.34
19.700,5.018,30.47
19.717,6.200,30.60
19.733,7.372,30.73
19.750,8.153,30.86
19.767,8.339,30.99
19.783,7.856,31.12
19.800,6.916,31.25
19.817,6.057,31.38
19.833,5.638,31.51
19.850,5.780,31.65
19.867,6.309,31.78
19.883,6.832,31.91
19.900,7.099,32.04
19.917,7.179,32.17
19.933,7.365,32.31
19.950,7.982,32.44
19.967,9.643,32.57
19.983,13.233,32.71
20.000,19.992,32.84
20.017,30.852,32.98
20.033,45.826,33.11
20.050,62.117,33.25
20.067,74.924,33.38
20.083,80.180,33.52
20.100,76.441,33.65
20.117,66.492,33.79
20.133,55.186,33.92
20.150,45.988,34.06
20.167,39.838,34.20
20.183,35.375,34.33
20.200,31.371,34.47
20.217,27.168,34.61
20.233,22.721,34.75
20.250,18.338,34.89
20.267,14.031,35.02
20.283,10.467,35.16
20.300,7.901,35.30
20.317,6.411,35.44
20.333,5.694,35.58
20.350,5.399,35.72
20.367,5.243,35.86
20.383,5.396,36.00
20.400,5.921,36.14
20.417,7.191,36.28
20.433,9.806,36.42
20.450,14.621,36.57
20.467,22.184,36.71
20.483,31.834,36.85
20.500,41.464,36.99
20.517,48.334,37.13
20.533,50.346,37.28
20.550,47.044,37.42
20.567,39.724,37.56
20.583,30.773,37.71
20.600,22.497,37.85
20.617,16.199,38.00
20.633,12.174,38.14
20.650,10.022,38.29
20.667,9.130,38.43
20.683,9.117,38.58
20.700,9.647,38.72
20.717,10.384,38.87
20.733,11.003,39.02
20.750,11.360,39.16
20.767,11.370,39.31
20.783,10.840,39.46
20.800,9.702,39.60
20.817,8.330,39.75
20.833,7.024,39.90
20.850,6.270,40.05
20.867,5.888,40.20
20.883,5.652,40.34
20.900,5.244,40.49
20.917,4.687,40.64
20.933,4.146,40.79
20.950,3.741,40.94
20.967,3.514,41.09
20.983,3.565,41.24
21.000,3.761,41.39
21.017,4.172,41.54
21.033,4.734,41.69
21.050,5.456,41.85
21.067,6.386,42.00
21.083,7.455,42.15
21.100,8.637,42.30
21.117,9.927,42.45
21.133,11.043,42.61
21.150,11.999,42.76
21.167,12.666,42.91
21.183,12.904,43.07
21.200,12.820,43.22
21.217,12.401,43.38
21.233,11.639,43.53
21.250,10.567,43.68
21.267,9.379,43.84
21.283,8.245,43.99
21.300,7.346,44.15
21.317,7.089,44.31
21.333,7.792,44.46
21.350,11.770,44.62
21.367,27.600,44.77
21.383,70.034,44.93
21.400,152.148,45.09
21.417,274.586,45.25
21.433,421.928,45.40
21.450,570.165,45.56
21.467,697.611,45.72
21.483,789.869,45.88
21.500,837.813,46.04
21.517,837.066,46.20
21.533,789.402,46.35
21.550,705.445,46.51
21.567,600.874,46.67
21.583,491.114,46.83
21.600,385.702,46.99
21.617,289.889,47.15
21.633,208.269,47.31
21.650,144.653,47.48
21.667,98.731,47.64
21.683,68.650,47.80
21.700,50.237,47.96
21.717,39.457,48.12
21.733,31.931,48.28
21.750,26.529,48.45
21.767,22.632,48.61
21.783,19.398,48.77
21.800,17.468,48.94
21.817,16.844,49.10
21.833,16.354,49.26
21.850,15.664,49.43
21.867,14.630,49.59
21.883,13.536,49.76
21.900,12.653,49.92
21.917,12.532,50.09
21.933,12.848,50.25
21.950,12.920,50.42
21.967,12.683,50.58
21.983,11.993,50.75
22.000,10.696,50.92
22.017,9.116,51.08
22.033,7.659,51.25
22.050,6.529,51.42
22.067,5.659,51.58
22.083,5.207,51.75
22.100,5.348,51.92
22.117,6.293,52.09
22.133,8.175,52.25
22.150,11.091,52.42
22.167,15.002,52.59
22.183,19.461,52.76
22.200,23.925,52.93
22.217,27.765,53.10
22.233,30.468,53.27
22.250,31.585,53.44
22.267,30.846,53.61
22.283,28.340,53.78
22.300,24.729,53.95
22.317,20.781,54.12
22.333,17.348,54.29
22.350,14.697,54.47
22.367,13.042,54.64
22.383,12.107,54.81
22.400,11.760,54.98
22.417,11.583,55.15
22.433,11.341,55.33
22.450,10.836,55.50
22.467,10.037,55.67
22.483,8.938,55.85
22.500,7.532,56.02
22.517,6.227,56.19
22.533,5.108,56.37
22.550,4.280,56.54
22.567,3.747,56.72
22.583,3.281,56.89
22.600,2.907,57.07
22.617,2.706,57.24
22.633,2.707,57.42
22.650,2.788,57.60
22.667,2.899,57.77
22.683,3.132,57.95
22.700,3.437,58.12
22.717,3.788,58.30
22.733,4.514,58.48
22.750,5.609,58.66
22.767,7.084,58.83
22.783,8.879,59.01
22.800,10.863,59.19
22.817,12.901,59.37
22.833,14.815,59.55
22.850,16.423,59.73
22.867,17.461,59.90
22.883,17.611,60.08
22.900,16.986,60.26
22.917,15.838,60.44
22.933,14.292,60.62
22.950,12.571,60.80
22.967,10.964,60.98
22.983,9.746,61.16
23.000,8.945,61.34
23.017,8.556,61.53
23.033,8.501,61.71
23.050,8.358,61.89
23.067,8.038,62.07
23.083,7.508,62.25
23.100,6.742,62.43
23.117,5.699,62.62
23.133,4.702,62.80
23.150,3.834,62.98
23.167,3.160,63.17
23.183,2.666,63.35
23.200,2.461,63.53
23.217,2.444,63.72
23.233,2.598,63.90
23.250,3.007,64.09
23.267,3.673,64.27
23.283,4.226,64.45
23.300,4.733,64.64
23.317,5.001,64.83
23.333,4.999,65.01
23.350,4.794,65.20
23.367,4.607,65.38
23.383,4.590,65.57
23.400,4.752,65.75
23.417,5.163,65.94
23.433,5.731,66.13
23.450,6.298,66.32
23.467,6.833,66.50
23.483,7.431,66.69
23.500,7.977,66.88
23.517,8.475,67.07
23.533,8.917,67.25
23.550,9.234,67.44
23.567,9.491,67.63
23.583,9.733,67.82
23.600,9.970,68.01
23.617,10.203,68.20
23.633,10.260,68.39
23.650,9.996,68.58
23.667,9.429,68.77
23.683,8.663,68.96
23.700,7.838,69.15
23.717,7.041,69.34
23.733,6.324,69.53
23.750,5.722,69.72
23.767,5.215,69.91
23.783,4.797,70.10
23.800,4.419,70.29
23.817,4.003,70.49
23.833,3.581,70.68
23.850,3.152,70.87
23.867,2.765,71.06
23.883,2.413,71.26
23.900,2.070,71.45
23.917,1.878,71.64
23.933,1.925,71.83
23.950,2.077,72.03
23.967,2.048,72.22
23.983,1.818,72.42
24.000,1.505,72.61
24.017,1.227,72.80
24.033,1.311,73.00
24.050,1.475,73.19
24.067,1.388,73.39
24.083,1.426,73.58
24.100,1.514,73.78
24.117,1.652,73.98
24.133,1.871,74.17
24.150,2.178,74.37
24.167,2.617,74.56
24.183,3.309,74.76
24.200,4.368,74.96
24.217,5.458,75.15
24.233,6.312,75.35
24.250,6.941,75.55
24.267,7.121,75.75
24.283,6.812,75.94
24.300,6.268,76.14
24.317,5.624,76.34
24.333,4.977,76.54
24.350,4.337,76.74
24.367,3.864,76.94
24.383,3.568,77.13
24.400,3.536,77.33
24.417,3.876,77.53
24.433,4.642,77.73
24.450,5.856,77.93
24.467,7.508,78.13
24.483,9.553,78.33
24.500,11.885,78.53
24.517,14.266,78.73
24.533,16.461,78.93
24.550,18.276,79.14
24.567,19.425,79.34
24.583,19.837,79.54
24.600,19.369,79.74
24.617,18.037,79.94
24.633,16.093,80.14
24.650,13.858,80.35
24.667,11.560,80.55
24.683,9.392,80.75
24.700,7.566,80.95
24.717,5.965,81.16
24.733,4.504,81.36
24.750,3.418,81.56
24.767,2.681,81.77
24.783,2.113,81.97
24.800,1.723,82.17
24.817,1.484,82.38
24.833,1.144,82.58
24.850,0.851,82.79
24.867,0.855,82.99
24.883,0.782,83.20
24.900,0.693,83.40
24.917,0.601,83.61
24.933,0.530,83.81
24.950,0.506,84.02
24.967,0.470,84.23
24.983,0.377,84.43
25.000,0.241,84.64
25.017,0.175,84.84
25.033,0.197,85.05
25.050,0.188,85.26
25.067,0.180,85.46
25.083,0.035,85.67
25.100,-0.202,85.88
25.117,-0.354,86.09
25.133,-0.444,86.29
25.150,-0.422,86.50
25.167,-0.304,86.71
25.183,-0.187,86.92
25.200,-0.141,87.13
25.217,-0.172,87.34
25.233,-0.234,87.55
25.250,-0.288,87.75
25.267,-0.304,87.96
25.283,-0.307,88.17
25.300,-0.320,88.38
25.317,-0.273,88.59
25.333,-0.219,88.80
25.350,-0.251,89.01
25.367,-0.285,89.22
25.383,-0.277,89.43
25.400,-0.199,89.65
25.417,-0.023,89.86
25.433,0.218,90.07
25.450,0.249,90.28
25.467,0.216,90.49
25.483,0.387,90.70
25.500,0.607,90.91
25.517,0.925,91.13
25.533,1.061,91.34
25.550,1.047,91.55
25.567,0.906,91.76
25.583,0.837,91.98
25.600,0.806,92.19
25.617,0.745,92.40
25.633,0.664,92.61
25.650,0.561,92.83
25.667,0.403,93.04
25.683,0.353,93.26
25.700,0.187,93.47
25.717,0.082,93.68
25.733,0.042,93.90
25.750,0.070,94.11
25.767,0.126,94.33
25.783,0.249,94.54
25.800,0.254,94.76
25.817,0.181,94.97
25.833,0.072,95.19
25.850,0.013,95.40
25.867,0.004,95.62
25.883,0.033,95.84
25.900,0.085,96.05
25.917,0.163,96.27
25.933,0.214,96.48
25.950,0.265,96.70
25.967,0.332,96.92
25.983,0.530,97.13
26.000,0.914,97.35
26.017,1.420,97.57
26.033,1.945,97.79
26.050,2.496,98.00
26.067,3.173,98.22
26.083,4.009,98.44
26.100,5.142,98.66
26.117,6.823,98.88
26.133,9.190,99.09
26.150,12.216,99.31
26.167,15.849,99.53
26.183,19.780,99.75
26.200,23.493,99.97
26.217,26.732,100.19
26.233,29.249,100.41
26.250,30.963,100.63
26.267,31.733,100.85
26.283,31.506,101.07
26.300,30.051,101.29
26.317,27.985,101.51
26.333,25.790,101.73
26.350,23.832,101.95
26.367,22.167,102.17
26.383,20.795,102.39
26.400,19.670,102.61
26.417,19.347,102.83
26.433,19.597,103.05
26.450,20.311,103.28
26.467,21.058,103.50
26.483,21.912,103.72
26.500,23.002,103.94
26.517,24.082,104.16
26.533,25.629,104.39
26.550,27.462,104.61
26.567,29.668,104.83
26.583,31.868,105.05
26.600,33.457,105.28
26.617,34.434,105.50
26.633,34.697,105.72
26.650,34.189,105.95
26.667,32.992,106.17
26.683,30.871,106.39
26.700,28.035,106.62
26.717,24.680,106.84
26.733,21.165,107.07
26.750,17.769,107.29
26.767,14.576,107.52
26.783,11.783,107.74
26.800,9.448,107.97
26.817,7.548,108.19
26.833,6.082,108.42
26.850,4.955,108.64
26.867,4.110,108.87
26.883,3.476,109.09
26.900,2.940,109.32
26.917,2.494,109.54
26.933,2.149,109.77
26.950,1.849,110.00
26.967,1.602,110.22
26.983,1.369,110.45
27.000,1.335,110.68
27.017,1.414,110.90
27.033,1.556,111.13
27.050,1.754,111.36
27.067,1.891,111.58
27.083,1.949,111.81
27.100,1.937,112.04
27.117,2.039,112.27
27.133,2.137,112.50
27.150,2.141,112.72
27.167,2.266,112.95
27.183,2.123,113.18
27.200,1.868,113.41
27.217,1.626,113.64
27.233,1.454,113.87
27.250,1.190,114.09
27.267,0.870,114.32
27.283,0.732,114.55
27.300,0.588,114.78
27.317,0.448,115.01
27.333,0.321,115.24
27.350,0.109,115.47
27.367,-0.050,115.70
27.383,-0.163,115.93
27.400,-0.166,116.16
27.417,-0.152,116.39
27.433,-0.145,116.62
27.450,-0.028,116.85
27.467,0.176,117.08
27.483,0.494,117.31
27.500,0.743,117.55
27.517,0.772,117.78
27.533,0.648,118.01
27.550,0.448,118.24
27.567,0.362,118.47
27.583,0.468,118.70
27.600,0.610,118.93
27.617,0.734,119.17
27.633,0.803,119.40
27.650,0.905,119.63
27.667,1.217,119.86
27.683,1.639,120.10
27.700,2.098,120.33
27.717,2.396,120.56
27.733,2.489,120.79
27.750,2.576,121.03
27.767,2.783,121.26
27.783,3.342,121.49
27.800,4.201,121.73
27.817,5.306,121.96
27.833,6.780,122.20
27.850,8.628,122.43
27.867,10.810,122.66
27.883,13.316,122.90
27.900,16.274,123.13
27.917,19.546,123.37
27.933,22.587,123.60
27.950,25.269,123.84
27.967,27.305,124.07
27.983,27.949,124.31
28.000,28.963,124.54
28.017,30.372,124.78
28.033,30.869,125.01
28.050,29.547,125.25
28.067,26.291,125.48
28.083,22.031,125.72
28.100,17.908,125.95
28.117,14.849,126.19
28.133,12.395,126.43
28.150,9.620,126.66
28.167,7.264,126.90
28.183,5.452,127.13
28.200,4.107,127.37
28.217,3.144,127.61
28.233,2.360,127.85
28.250,1.799,128.08
28.267,1.368,128.32
28.283,0.996,128.56
28.300,0.660,128.79
28.317,0.446,129.03
28.333,0.309,129.27
28.350,0.178,129.51
28.367,0.081,129.75
28.383,-0.001,129.98
28.400,-0.107,130.22
28.417,-0.239,130.46
28.433,-0.346,130.70
28.450,-0.387,130.94
28.467,-0.404,131.18
28.483,-0.405,131.41
28.500,-0.409,131.65
28.517,-0.461,131.89
28.533,-0.512,132.13
28.550,-0.620,132.37
28.567,-0.663,132.61
28.583,-0.612,132.85
28.600,-0.713,133.09
28.617,-0.527,133.33
28.633,-0.325,133.57
28.650,-0.225,133.81
28.667,-0.262,134.05
28.683,-0.577,134.29
28.700,-0.872,134.53
28.717,-1.157,134.77
28.733,-1.154,135.01
28.750,-1.031,135.25
28.767,-1.183,135.49
28.783,-1.175,135.73
28.800,-1.169,135.97
28.817,-1.047,136.21
28.833,-0.619,136.46
28.850,-0.205,136.70
28.867,0.261,136.94
28.883,0.750,137.18
28.900,1.340,137.42
28.917,1.884,137.66
28.933,2.426,137.91
28.950,2.786,138.15
28.967,3.092,138.39
28.983,3.212,138.63
29.000,3.236,138.87
29.017,3.142,139.12
29.033,2.903,139.36
29.050,2.570,139.60
29.067,2.223,139.85
29.083,1.898,140.09
29.100,1.605,140.33
29.117,1.294,140.57
29.133,1.009,140.82
29.150,0.718,141.06
29.167,0.423,141.30
29.183,0.237,141.55
29.200,0.124,141.79
29.217,0.047,142.04
29.233,-0.037,142.28
29.250,-0.121,142.52
29.267,-0.199,142.77
29.283,-0.293,143.01
29.300,-0.364,143.26
29.317,-0.372,143.50
29.333,-0.265,143.75
29.350,-0.141,143.99
29.367,-0.123,144.24
29.383,-0.213,144.48
29.400,-0.360,144.73
29.417,-0.404,144.97
29.433,-0.326,145.22
29.450,-0.242,145.46
29.467,-0.212,145.71
29.483,-0.228,145.95
29.500,-0.274,146.20
29.517,-0.328,146.44
29.533,-0.382,146.69
29.550,-0.263,146.94
29.567,-0.161,147.18
29.583,-0.081,147.43
29.600,0.045,147.67
29.617,0.204,147.92
29.633,0.234,148.17
29.650,0.247,148.41
29.667,0.222,148.66
29.683,0.162,148.91
29.700,0.114,149.15
29.717,0.115,149.40
29.733,0.028,149.65
29.750,-0.161,149.89
29.767,-0.334,150.14
29.783,-0.436,150.39
29.800,-0.517,150.64
29.817,-0.555,150.88
29.833,-0.521,151.13
29.850,-0.453,151.38
29.867,-0.402,151.63
29.883,-0.446,151.88
29.900,-0.511,152.12
29.917,-0.615,152.37
29.933,-0.778,152.62
29.950,-0.796,152.87
29.967,-0.530,153.12
29.983,-0.089,153.37
30.000,0.406,153.61
30.017,0.875,153.86
30.033,0.985,154.11
30.050,0.818,154.36
30.067,0.757,154.61
30.083,0.417,154.86
30.100,0.167,155.11
30.117,2.993,155.36
30.133,8.489,155.61
30.150,13.301,155.86
30.167,14.147,156.11
30.183,10.724,156.36
30.200,4.969,156.61
30.217,0.562,156.85
30.233,-0.359,157.10
30.250,0.241,157.35
30.267,-0.353,157.61
30.283,-0.538,157.86
30.300,-0.429,158.11
30.317,-0.380,158.36
30.333,-0.498,158.61
30.350,-0.420,158.86
30.367,-0.309,159.11
30.383,-0.237,159.36
30.400,-0.267,159.61
30.417,-0.371,159.86
30.433,-0.487,160.11
30.450,-0.416,160.36
30.467,-0.238,160.61
30.483,-0.223,160.87
30.500,-0.322,161.12
30.517,-0.378,161.37
30.533,-0.395,161.62
30.550,-0.434,161.87
30.567,-0.454,162.12
30.583,-0.453,162.37
30.600,-0.462,162.63
30.617,-0.367,162.88
30.633,-0.096,163.13
30.650,0.246,163.38
30.667,0.532,163.64
30.683,0.677,163.89
30.700,0.613,164.14
30.717,0.426,164.39
30.733,0.272,164.65
30.750,0.188,164.90
30.767,0.130,165.15
30.783,0.046,165.40
30.800,-0.039,165.66
30.817,-0.089,165.91
30.833,-0.116,166.16
30.850,-0.175,166.42
30.867,-0.212,166.67
30.883,-0.228,166.92
30.900,-0.245,167.18
30.917,-0.290,167.43
30.933,-0.250,167.68
30.950,-0.281,167.94
30.967,-0.336,168.19
30.983,-0.343,168.44
31.000,-0.197,168.70
31.017,-0.070,168.95
31.033,0.072,169.21
31.050,0.081,169.46
31.067,-0.031,169.71
31.083,-0.137,169.97
31.100,-0.148,170.22
31.117,-0.139,170.48
31.133,-0.111,170.73
31.150,-0.164,170.99
31.167,-0.111,171.24
31.183,-0.024,171.50
31.200,0.076,171.75
31.217,0.118,172.01
31.233,0.356,172.26
31.250,0.813,172.52
31.267,1.170,172.77
31.283,1.231,173.03
31.300,0.901,173.28
31.317,0.401,173.54
31.333,0.025,173.79
31.350,-0.067,174.05
31.367,-0.016,174.30
31.383,-0.059,174.56
31.400,-0.089,174.82
31.417,0.028,175.07
31.433,0.146,175.33
31.450,0.189,175.58
31.467,0.145,175.84
31.483,0.017,176.10
31.500,-0.147,176.35
31.517,-0.225,176.61
31.533,-0.220,176.86
31.550,-0.276,177.12
31.567,-0.324,177.38
31.583,-0.343,177.63
31.600,-0.349,177.89
31.617,-0.307,178.15
31.633,-0.210,178.40
31.650,-0.227,178.66
31.667,-0.336,178.92
31.683,-0.430,179.17
31.700,-0.412,179.43
31.717,-0.401,179.69
31.733,-0.348,179.95
31.750,-0.269,180.20
31.767,-0.172,180.46
31.783,-0.019,180.72
31.800,0.088,180.98
31.817,0.019,181.23
31.833,-0.186,181.49
31.850,-0.417,181.75
31.867,-0.378,182.01
31.883,-0.129,182.26
31.900,-0.017,182.52
31.917,0.015,182.78
31.933,-0.004,183.04
31.950,-0.004,183.30
31.967,0.038,183.55
31.983,0.039,183.81
32.000,-0.015,184.07
32.017,-0.119,184.33
32.033,-0.176,184.59
32.050,-0.179,184.85
32.067,-0.173,185.10
32.083,-0.173,185.36
32.100,-0.165,185.62
32.117,-0.124,185.88
32.133,-0.169,186.14
32.150,-0.255,186.40
32.167,-0.190,186.66
32.183,0.097,186.92
32.200,0.387,187.17
32.217,0.496,187.43
32.233,0.418,187.69
32.250,0.154,187.95
32.267,-0.093,188.21
32.283,-0.090,188.47
32.300,0.043,188.73
32.317,0.162,188.99
32.333,0.212,189.25
32.350,0.125,189.51
32.367,-0.020,189.77
32.383,-0.134,190.03
32.400,-0.114,190.29
32.417,-0.067,190.55
32.433,-0.073,190.81
32.450,-0.089,191.07
32.467,-0.175,191.33
32.483,-0.167,191.59
32.500,-0.051,191.85
32.517,-0.077,192.11
32.533,-0.240,192.37
32.550,-0.367,192.63
32.567,-0.383,192.89
32.583,-0.195,193.15
32.600,-0.405,193.41
32.617,-0.294,193.67
32.633,0.084,193.93
32.650,0.507,194.19
32.667,0.707,194.45
32.683,0.476,194.71
32.700,-0.078,194.97
32.717,-0.371,195.24
32.733,-0.295,195.50
32.750,0.003,195.76
32.767,-0.166,196.02
32.783,-0.242,196.28
32.800,-0.264,196.54
32.817,-0.312,196.80
32.833,-0.272,197.06
32.850,-0.217,197.32
32.867,-0.232,197.59
32.883,-0.235,197.85
32.900,-0.273,198.11
32.917,-0.284,198.37
32.933,-0.322,198.63
32.950,-0.331,198.89
32.967,-0.255,199.16
32.983,-0.162,199.42
33.000,-0.041,199.68
33.017,0.071,199.94
33.033,0.135,200.20
33.050,0.171,200.46
33.067,0.132,200.73
33.083,0.074,200.99
33.100,0.058,201.25
33.117,0.079,201.51
33.133,0.174,201.78
33.150,0.252,202.04
33.167,0.289,202.30
33.183,0.252,202.56
33.200,0.175,202.82
33.217,0.043,203.09
33.233,-0.053,203.35
33.250,-0.149,203.61
33.267,-0.138,203.87
33.283,-0.147,204.14
33.300,-0.146,204.40
33.317,-0.098,204.66
33.333,-0.021,204.93
33.350,0.060,205.19
33.367,-0.003,205.45
33.383,-0.132,205.71
33.400,-0.155,205.98
33.417,-0.123,206.24
33.433,-0.113,206.50
33.450,-0.167,206.77
33.467,-0.217,207.03
33.483,-0.138,207.29
33.500,-0.063,207.56
33.517,-0.006,207.82
33.533,-0.162,208.08
33.550,-0.276,208.35
33.567,-0.307,208.61
33.583,-0.181,208.87
33.600,-0.048,209.14
33.617,0.111,209.40
33.633,0.168,209.66
33.650,0.119,209.93
33.667,-0.029,210.19
33.683,-0.068,210.46
33.700,0.094,210.72
33.717,0.315,210.98
33.733,0.458,211.25
33.750,0.410,211.51
33.767,0.188,211.78
33.783,0.022,212.04
33.800,0.007,212.30
33.817,0.043,212.57
33.833,0.033,212.83
33.850,0.006,213.10
33.867,0.029,213.36
33.883,0.062,213.63
33.900,0.116,213.89
33.917,0.187,214.15
33.933,0.180,214.42
33.950,0.133,214.68
33.967,0.104,214.95
33.983,0.046,215.21
34.000,-0.076,215.48
34.017,-0.166,215.74
34.033,-0.228,216.01
34.050,-0.201,216.27
34.067,-0.134,216.54
34.083,-0.080,216.80
34.100,-0.066,217.07
34.117,-0.081,217.33
34.133,-0.048,217.59
34.150,-0.017,217.86
34.167,-0.008,218.12
34.183,0.011,218.39
34.200,-0.042,218.65
34.217,0.108,218.92
34.233,0.064,219.19
34.250,0.034,219.45
34.267,0.029,219.72
34.283,0.028,219.98
34.300,-0.052,220.25
34.317,-0.140,220.51
34.333,-0.201,220.78
34.350,-0.233,221.04
34.367,-0.218,221.31
34.383,-0.191,221.57
34.400,-0.260,221.84
34.417,-0.251,222.10
34.433,-0.242,222.37
34.450,-0.236,222.64
34.467,-0.280,222.90
34.483,-0.293,223.17
34.500,-0.249,223.43
34.517,-0.207,223.70
34.533,-0.142,223.96
34.550,-0.062,224.23
34.567,0.056,224.50
34.583,0.199,224.76
34.600,0.246,225.03
34.617,0.179,225.29
34.633,0.085,225.56
34.650,0.048,225.83
34.667,0.105,226.09
34.683,0.124,226.36
34.700,0.040,226.62
34.717,-0.077,226.89
34.733,-0.277,227.16
34.750,-0.351,227.42
34.767,-0.311,227.69
34.783,-0.263,227.96
34.800,-0.224,228.22
34.817,-0.206,228.49
34.833,-0.192,228.75
34.850,-0.161,229.02
34.867,-0.147,229.29
34.883,-0.086,229.55
34.900,-0.131,229.82
34.917,-0.011,230.09
34.933,0.090,230.35
34.950,0.169,230.62
34.967,0.209,230.89
34.983,0.406,231.15
35.000,0.634,231.42
35.017,0.996,231.69
35.033,1.475,231.95
35.050,1.878,232.22
35.067,2.183,232.49
35.083,2.545,232.75
35.100,2.878,233.02
35.117,3.177,233.29
35.133,3.454,233.55
35.150,3.972,233.82
35.167,4.415,234.09
35.183,4.644,234.36
35.200,4.717,234.62
35.217,4.616,234.89
35.233,4.530,235.16
35.250,4.538,235.42
35.267,4.521,235.69
35.283,4.272,235.96
35.300,3.731,236.23
35.317,3.172,236.49
35.333,2.744,236.76
35.350,2.436,237.03
35.367,2.214,237.30
35.383,2.020,237.56
35.400,1.776,237.83
35.417,1.499,238.10
35.433,1.218,238.36
35.450,1.001,238.63
35.467,0.956,238.90
35.483,0.979,239.17
35.500,0.993,239.43
35.517,0.856,239.70
35.533,0.808,239.97
35.550,0.943,240.24
35.567,1.175,240.50
35.583,1.149,240.77
35.600,0.984,241.04
35.617,0.647,241.31
35.633,0.467,241.58
35.650,0.394,241.84
35.667,0.400,242.11
35.683,0.100,242.38
35.700,-0.147,242.65
35.717,-0.242,242.91
35.733,-0.058,243.18
35.750,0.027,243.45
35.767,0.206,243.72
35.783,0.227,243.99
35.800,0.090,244.25
35.817,-0.056,244.52
35.833,-0.121,244.79
35.850,-0.154,245.06
35.867,-0.108,245.33
35.883,-0.113,245.59
35.900,-0.165,245.86
35.917,-0.202,246.13
35.933,-0.156,246.40
35.950,-0.088,246.67
35.967,-0.036,246.93
35.983,-0.065,247.20
36.000,-0.058,247.47
36.017,-0.130,247.74
36.033,-0.140,248.01
36.050,-0.046,248.28
36.067,0.051,248.54
36.083,0.040,248.81
36.100,-0.013,249.08
36.117,0.030,249.35
36.133,0.127,249.62
36.150,0.218,249.89
36.167,0.309,250.15
36.183,0.214,250.42
36.200,-0.108,250.69
36.217,-0.362,250.96
36.233,-0.449,251.23
36.250,-0.445,251.50
36.267,-0.339,251.76
36.283,-0.170,252.03
36.300,-0.097,252.30
36.317,-0.164,252.57
36.333,-0.291,252.84
36.350,-0.288,253.11
36.367,-0.214,253.38
36.383,-0.157,253.64
36.400,-0.128,253.91
36.417,-0.105,254.18
36.433,-0.064,254.45
36.450,-0.009,254.72
36.467,0.141,254.99
36.483,0.143,255.26
36.500,-0.034,255.52
36.517,-0.341,255.79
36.533,-0.413,256.06
36.550,-0.269,256.33
36.567,-0.051,256.60
36.583,0.145,256.87
36.600,0.066,257.14
36.617,-0.197,257.41
36.633,-0.381,257.68
36.650,-0.391,257.94
36.667,-0.208,258.21
36.683,-0.140,258.48
36.700,-0.005,258.75
36.717,0.037,259.02
36.733,0.010,259.29
36.750,0.040,259.56
36.767,0.032,259.83
36.783,-0.046,260.10
36.800,-0.051,260.36
36.817,0.066,260.63
36.833,0.174,260.90
36.850,0.172,261.17
36.867,0.056,261.44
36.883,-0.175,261.71
36.900,-0.355,261.98
36.917,-0.308,262.25
36.933,-0.135,262.52
36.950,-0.024,262.79
36.967,-0.016,263.05
36.983,-0.068,263.32
37.000,-0.165,263.59
37.017,-0.259,263.86
37.033,-0.273,264.13
37.050,-0.270,264.40
37.067,-0.289,264.67
37.083,-0.259,264.94
37.100,-0.149,265.21
37.117,-0.084,265.48
37.133,-0.126,265.75
37.150,-0.213,266.02
37.167,-0.212,266.28
37.183,-0.145,266.55
37.200,0.025,266.82
37.217,0.088,267.09
37.233,-0.026,267.36
37.250,-0.120,267.63
37.267,-0.243,267.90
37.283,-0.260,268.17
37.300,-0.213,268.44
37.317,-0.200,268.71
37.333,-0.164,268.98
37.350,-0.107,269.25
37.367,-0.029,269.52
37.383,-0.002,269.78
37.400,-0.045,270.05
37.417,-0.047,270.32
37.433,-0.150,270.59
37.450,-0.164,270.86
37.467,-0.160,271.13
37.483,-0.139,271.40
37.500,-0.122,271.67
37.517,-0.103,271.94
37.533,-0.047,272.21
37.550,-0.012,272.48
37.567,0.009,272.75
37.583,0.088,273.02
37.600,0.121,273.29
37.617,0.097,273.56
37.633,0.067,273.83
37.650,0.047,274.09
37.667,0.000,274.36
37.683,-0.081,274.63
37.700,-0.146,274.90
37.717,-0.191,275.17
37.733,-0.207,275.44
37.750,-0.187,275.71
37.767,-0.159,275.98
37.783,-0.135,276.25
37.800,-0.089,276.52
37.817,-0.012,276.79
37.833,-0.018,277.06
37.850,-0.118,277.33
37.867,-0.195,277.60
37.883,-0.188,277.87
37.900,-0.153,278.14
37.917,-0.142,278.41
37.933,-0.189,278.68
37.950,-0.249,278.95
37.967,-0.330,279.22
37.983,-0.402,279.48
38.000,-0.453,279.75
38.017,-0.207,280.02
38.033,0.430,280.29
38.050,1.199,280.56
38.067,1.618,280.83
38.083,1.443,281.10
38.100,0.776,281.37
38.117,0.135,281.64
38.133,-0.033,281.91
38.150,0.043,282.18
38.167,0.093,282.45
38.183,0.009,282.72
38.200,-0.113,282.99
38.217,-0.157,283.26
38.233,-0.134,283.53
38.250,-0.093,283.80
38.267,-0.048,284.07
38.283,0.010,284.34
38.300,0.076,284.61
38.317,0.133,284.88
38.333,0.091,285.14
38.350,-0.003,285.41
38.367,-0.049,285.68
38.383,-0.067,285.95
38.400,-0.043,286.22
38.417,0.081,286.49
38.433,0.286,286.76
38.450,0.427,287.03
38.467,0.402,287.30
38.483,0.234,287.57
38.500,0.038,287.84
38.517,-0.053,288.11
38.533,-0.034,288.38
38.550,-0.005,288.65
38.567,-0.022,288.92
38.583,-0.012,289.19
38.600,0.101,289.46
38.617,0.184,289.73
38.633,0.176,290.00
38.650,0.141,290.27
38.667,0.080,290.54
38.683,0.041,290.81
38.700,-0.012,291.08
38.717,-0.092,291.34
38.733,-0.152,291.61
38.750,-0.088,291.88
38.767,-0.013,292.15
38.783,0.002,292.42
38.800,-0.066,292.69
38.817,-0.051,292.96
38.833,-0.084,293.23
38.850,-0.155,293.50
38.867,-0.199,293.77
38.883,-0.280,294.04
38.900,-0.403,294.31
38.917,-0.310,294.58
38.933,-0.113,294.85
38.950,0.216,295.12
38.967,0.434,295.39
38.983,0.558,295.66
39.000,0.421,295.93
39.017,0.203,296.20
39.033,0.009,296.47
39.050,-0.077,296.73
39.067,-0.219,297.00
39.083,-0.314,297.27
39.100,-0.269,297.54
39.117,-0.203,297.81
39.133,-0.103,298.08
39.150,0.070,298.35
39.167,0.167,298.62
39.183,0.144,298.89
39.200,0.044,299.16
39.217,-0.063,299.43
39.233,-0.100,299.70
39.250,-0.020,299.97
39.267,0.125,300.24
39.283,0.213,300.51
39.300,0.218,300.78
39.317,0.213,301.05
39.333,0.178,301.32
39.350,0.073,301.58
39.367,0.008,301.85
39.383,0.025,302.12
39.400,0.066,302.39
39.417,0.117,302.66
39.433,0.065,302.93
39.450,-0.019,303.20
39.467,-0.008,303.47
39.483,0.041,303.74
39.500,0.132,304.01
39.517,0.149,304.28
39.533,0.086,304.55
39.550,-0.060,304.82
39.567,-0.242,305.09
39.583,-0.271,305.36
39.600,-0.262,305.62
39.617,-0.233,305.89
39.633,-0.218,306.16
39.650,-0.240,306.43
39.667,-0.237,306.70
39.683,-0.227,306.97
39.700,-0.160,307.24
39.717,-0.226,307.51
39.733,-0.289,307.78
39.750,-0.326,308.05
39.767,-0.267,308.32
39.783,-0.141,308.59
39.800,-0.122,308.86
39.817,-0.031,309.12
39.833,0.023,309.39
39.850,-0.082,309.66
39.867,-0.188,309.93
39.883,-0.226,310.20
39.900,-0.207,310.47
39.917,-0.182,310.74
39.933,-0.150,311.01
39.950,-0.129,311.28
39.967,-0.143,311.55
39.983,-0.133,311.82
40.000,-0.160,312.08
40.017,-0.220,312.35
40.033,-0.226,312.62
40.050,-0.222,312.89
40.067,-0.206,313.16
40.083,-0.083,313.43
40.100,0.112,313.70
40.117,0.233,313.97
40.133,0.216,314.24
40.150,0.112,314.51
40.167,-0.050,314.77
40.183,-0.182,315.04
40.200,-0.221,315.31
40.217,-0.252,315.58
40.233,-0.339,315.85
40.250,-0.354,316.12
40.267,-0.339,316.39
40.283,-0.295,316.66
40.300,-0.278,316.93
40.317,-0.190,317.19
40.333,-0.097,317.46
40.350,-0.174,317.73
40.367,0.127,318.00
40.383,0.792,318.27
40.400,1.418,318.54
40.417,1.512,318.81
40.433,0.982,319.08
40.450,0.203,319.34
40.467,-0.093,319.61
40.483,0.129,319.88
40.500,0.566,320.15
40.517,0.556,320.42
40.533,0.458,320.69
40.550,0.209,320.96
40.567,-0.025,321.23
40.583,-0.187,321.49
40.600,-0.062,321.76
40.617,0.218,322.03
40.633,0.549,322.30
40.650,0.615,322.57
40.667,0.461,322.84
40.683,0.196,323.11
40.700,0.022,323.37
40.717,-0.073,323.64
40.733,-0.160,323.91
40.750,-0.238,324.18
40.767,-0.223,324.45
40.783,-0.153,324.72
40.800,-0.108,324.98
40.817,-0.122,325.25
40.833,-0.136,325.52
40.850,-0.075,325.79
40.867,0.032,326.06
40.883,0.057,326.33
40.900,-0.047,326.59
40.917,-0.148,326.86
40.933,-0.193,327.13
40.950,-0.189,327.40
40.967,-0.125,327.67
40.983,-0.116,327.94
41.000,-0.199,328.20
41.017,-0.203,328.47
41.033,-0.033,328.74
41.050,0.106,329.01
41.067,0.121,329.28
41.083,0.084,329.55
41.100,0.075,329.81
41.117,0.125,330.08
41.133,0.170,330.35
41.150,0.178,330.62
41.167,0.137,330.89
41.183,0.151,331.15
41.200,0.257,331.42
41.217,0.375,331.69
41.233,0.373,331.96
41.250,0.239,332.23
41.267,0.162,332.49
41.283,0.088,332.76
41.300,-0.086,333.03
41.317,-0.162,333.30
41.333,-0.121,333.57
41.350,-0.027,333.83
41.367,-0.021,334.10
41.383,0.016,334.37
41.400,-0.019,334.64
41.417,-0.047,334.91
41.433,-0.032,335.17
41.450,0.016,335.44
41.467,0.077,335.71
41.483,0.131,335.98
41.500,0.153,336.24
41.517,0.086,336.51
41.533,-0.131,336.78
41.550,-0.287,337.05
41.567,-0.267,337.32
41.583,-0.168,337.58
41.600,-0.080,337.85
41.617,-0.023,338.12
41.633,-0.033,338.39
41.650,-0.097,338.65
41.667,-0.156,338.92
41.683,-0.190,339.19
