VERSION=1.3
ExportFileName=PM AH 16_2025-05-14_13-24-16_labchip_PURE_Data_E3
SampleLabel=E3
SampleName=PM AH 16
SampleComment=
SampleAreaConcRatio=0.010927
SampleLowerMarkerTime=12.25
SampleUpperMarkerTime=-1.00
SamplePeakTimes=12.25,12.35,12.55,15.15,15.53,17.35,17.67,17.90,18.30,18.43,18.53,18.75,19.03,19.37,19.75,20.07,20.68,21.02,21.40,21.63,21.87,22.27,22.70,22.90,23.22,23.65,23.88,24.53,25.47,26.07,26.28,27.15
SamplePeakSizes=1.219,1.320,1.538,7.171,8.535,17.206,19.106,20.582,23.261,24.195,24.910,26.499,28.660,31.321,34.539,37.324,43.068,46.346,50.263,52.723,55.238,59.678,64.664,67.027,70.843,76.212,79.172,87.660,100.435,108.986,112.135,125.034
SamplePeakQuantities=,,,,,7.9676,2.7053,5.2752,57.6231,42.8055,46.8537,14.5757,12.7058,5.4742,23.5343,148.2810,147.2962,295.5356,59.1586,27.6902,9.4751,132.3230,16.4079,83.4983,14.3618,3.9978,15.8065,1.7401,62.0516,25.1037,13.7221,8.4154
PlateFileName=2025-05-14_13-24-16_labchip_PURE
PlateAssayName=HT Protein Express 200
PlateBarCode=N/A
WellAquisitionTime=5/14/2025 1:52:43 PM 
PlateDataFrequency=60
PlateDataStartTime=11.00
PlateDataEndTime=42.00
PlateConcUnits=ng/ul
PlateSizeUnits=kDa
PlateLadderSizes=1.40,15.90,20.40,28.90,48.40,68.40,119.20
ChipID=H296P-0563N-03
Operator=ACJS
DATA
Time,Value,Size
0.000,57.391,0.00
0.017,57.391,0.00
0.033,57.402,0.00
0.050,57.078,0.00
0.067,56.957,0.00
0.083,56.957,0.00
0.100,56.996,0.00
0.117,56.833,0.00
0.133,56.640,0.00
0.150,56.446,0.00
0.167,56.351,0.00
0.183,56.185,0.00
0.200,55.966,0.00
0.217,55.860,0.00
0.233,55.865,0.00
0.250,55.806,0.00
0.267,55.585,0.00
0.283,55.142,0.00
0.300,54.663,0.00
0.317,54.299,0.00
0.333,54.027,0.00
0.350,53.704,0.00
0.367,53.257,0.00
0.383,52.723,0.00
0.400,52.028,0.00
0.417,51.258,0.00
0.433,50.381,0.00
0.450,49.500,0.00
0.467,48.667,0.00
0.483,47.879,0.00
0.500,47.104,0.00
0.517,46.261,0.00
0.533,45.400,0.00
0.550,44.532,0.00
0.567,43.688,0.00
0.583,42.969,0.00
0.600,42.272,0.00
0.617,41.589,0.00
0.633,40.952,0.00
0.650,40.294,0.00
0.667,39.655,0.00
0.683,38.969,0.00
0.700,38.288,0.00
0.717,37.702,0.00
0.733,37.115,0.00
0.750,36.579,0.00
0.767,36.025,0.00
0.783,35.488,0.00
0.800,34.948,0.00
0.817,34.417,0.00
0.833,33.960,0.00
0.850,33.478,0.00
0.867,33.047,0.00
0.883,32.734,0.00
0.900,32.386,0.00
0.917,32.002,0.00
0.933,31.573,0.00
0.950,31.139,0.00
0.967,30.757,0.00
0.983,30.492,0.00
1.000,30.282,0.00
1.017,30.024,0.00
1.033,29.677,0.00
1.050,29.305,0.00
1.067,28.933,0.00
1.083,28.637,0.00
1.100,28.306,0.00
1.117,27.901,0.00
1.133,27.551,0.00
1.150,27.275,0.00
1.167,27.076,0.00
1.183,26.896,0.00
1.200,26.685,0.00
1.217,26.408,0.00
1.233,26.061,0.00
1.250,25.771,0.00
1.267,25.520,0.00
1.283,25.321,0.00
1.300,25.186,0.00
1.317,25.009,0.00
1.333,24.773,0.00
1.350,24.501,0.00
1.367,24.328,0.00
1.383,24.186,0.00
1.400,24.034,0.00
1.417,23.908,0.00
1.433,23.747,0.00
1.450,23.597,0.00
1.467,23.446,0.00
1.483,23.268,0.00
1.500,23.035,0.00
1.517,22.769,0.00
1.533,22.554,0.00
1.550,22.359,0.00
1.567,22.175,0.00
1.583,21.991,0.00
1.600,21.792,0.00
1.617,21.618,0.00
1.633,21.496,0.00
1.650,21.410,0.00
1.667,21.252,0.00
1.683,21.081,0.00
1.700,20.965,0.00
1.717,20.877,0.00
1.733,20.757,0.00
1.750,20.550,0.00
1.767,20.346,0.00
1.783,20.208,0.00
1.800,20.179,0.00
1.817,20.136,0.00
1.833,19.993,0.00
1.850,19.759,0.00
1.867,19.521,0.00
1.883,19.355,0.00
1.900,19.223,0.00
1.917,19.035,0.00
1.933,18.844,0.00
1.950,18.654,0.00
1.967,18.525,0.00
1.983,18.423,0.00
2.000,18.332,0.00
2.017,18.169,0.00
2.033,17.975,0.00
2.050,17.803,0.00
2.067,17.628,0.00
2.083,17.476,0.00
2.100,17.372,0.00
2.117,17.275,0.00
2.133,17.167,0.00
2.150,17.033,0.00
2.167,16.884,0.00
2.183,16.719,0.00
2.200,16.596,0.00
2.217,16.517,0.00
2.233,16.416,0.00
2.250,16.312,0.00
2.267,16.176,0.00
2.283,16.003,0.00
2.300,15.789,0.00
2.317,15.622,0.00
2.333,15.544,0.00
2.350,15.470,0.00
2.367,15.382,0.00
2.383,15.281,0.00
2.400,15.197,0.00
2.417,15.171,0.00
2.433,15.125,0.00
2.450,15.033,0.00
2.467,14.872,0.00
2.483,14.695,0.00
2.500,14.599,0.00
2.517,14.516,0.00
2.533,14.403,0.00
2.550,14.306,0.00
2.567,14.227,0.00
2.583,14.171,0.00
2.600,14.137,0.00
2.617,14.099,0.00
2.633,13.983,0.00
2.650,13.807,0.00
2.667,13.675,0.00
2.683,13.580,0.00
2.700,13.501,0.00
2.717,13.431,0.00
2.733,13.331,0.00
2.750,13.163,0.00
2.767,12.964,0.00
2.783,12.803,0.00
2.800,12.667,0.00
2.817,12.547,0.00
2.833,12.462,0.00
2.850,12.387,0.00
2.867,12.285,0.00
2.883,12.147,0.00
2.900,12.034,0.00
2.917,11.932,0.00
2.933,11.820,0.00
2.950,11.716,0.00
2.967,11.593,0.00
2.983,11.455,0.00
3.000,11.356,0.00
3.017,11.283,0.00
3.033,11.205,0.00
3.050,11.129,0.00
3.067,11.044,0.00
3.083,10.970,0.00
3.100,10.896,0.00
3.117,10.773,0.00
3.133,10.618,0.00
3.150,10.471,0.00
3.167,10.366,0.00
3.183,10.306,0.00
3.200,10.269,0.00
3.217,10.219,0.00
3.233,10.082,0.00
3.250,9.895,0.00
3.267,9.708,0.00
3.283,9.569,0.00
3.300,9.516,0.00
3.317,9.546,0.00
3.333,9.577,0.00
3.350,9.487,0.00
3.367,9.209,0.00
3.383,8.719,0.00
3.400,8.067,0.00
3.417,7.386,0.00
3.433,6.742,0.00
3.450,6.189,0.00
3.467,5.737,0.00
3.483,5.392,0.00
3.500,5.128,0.00
3.517,4.859,0.00
3.533,4.611,0.00
3.550,4.427,0.00
3.567,4.309,0.00
3.583,4.265,0.00
3.600,4.206,0.00
3.617,4.104,0.00
3.633,4.006,0.00
3.650,3.929,0.00
3.667,3.886,0.00
3.683,3.813,0.00
3.700,3.728,0.00
3.717,3.652,0.00
3.733,3.583,0.00
3.750,3.537,0.00
3.767,3.503,0.00
3.783,3.424,0.00
3.800,3.310,0.00
3.817,3.184,0.00
3.833,3.109,0.00
3.850,3.090,0.00
3.867,3.107,0.00
3.883,3.111,0.00
3.900,3.078,0.00
3.917,2.999,0.00
3.933,2.929,0.00
3.950,2.840,0.00
3.967,2.749,0.00
3.983,2.702,0.00
4.000,2.673,0.00
4.017,2.598,0.00
4.033,2.486,0.00
4.050,2.429,0.00
4.067,2.452,0.00
4.083,2.514,0.00
4.100,2.528,0.00
4.117,2.455,0.00
4.133,2.357,0.00
4.150,2.287,0.00
4.167,2.276,0.00
4.183,2.269,0.00
4.200,2.259,0.00
4.217,2.246,0.00
4.233,2.226,0.00
4.250,2.179,0.00
4.267,2.058,0.00
4.283,1.891,0.00
4.300,1.764,0.00
4.317,1.700,0.00
4.333,1.675,0.00
4.350,1.668,0.00
4.367,1.625,0.00
4.383,1.548,0.00
4.400,1.537,0.00
4.417,1.545,0.00
4.433,1.523,0.00
4.450,1.443,0.00
4.467,1.352,0.00
4.483,1.259,0.00
4.500,1.164,0.00
4.517,1.156,0.00
4.533,1.146,0.00
4.550,1.129,0.00
4.567,1.151,0.00
4.583,1.144,0.00
4.600,1.168,0.00
4.617,1.244,0.00
4.633,1.333,0.00
4.650,1.356,0.00
4.667,1.283,0.00
4.683,1.197,0.00
4.700,1.140,0.00
4.717,1.127,0.00
4.733,1.138,0.00
4.750,1.131,0.00
4.767,1.114,0.00
4.783,1.189,0.00
4.800,1.371,0.00
4.817,1.603,0.00
4.833,1.794,0.00
4.850,1.925,0.00
4.867,2.012,0.00
4.883,2.107,0.00
4.900,2.257,0.00
4.917,2.439,0.00
4.933,2.612,0.00
4.950,2.833,0.00
4.967,3.043,0.00
4.983,3.296,0.00
5.000,3.532,0.00
5.017,3.752,0.00
5.033,3.961,0.00
5.050,4.195,0.00
5.067,4.414,0.00
5.083,4.607,0.00
5.100,4.800,0.00
5.117,5.017,0.00
5.133,5.216,0.00
5.150,5.455,0.00
5.167,5.613,0.00
5.183,5.709,0.00
5.200,5.823,0.00
5.217,5.955,0.00
5.233,6.088,0.00
5.250,6.165,0.00
5.267,6.199,0.00
5.283,6.211,0.00
5.300,6.258,0.00
5.317,6.309,0.00
5.333,6.368,0.00
5.350,6.360,0.00
5.367,6.370,0.00
5.383,6.327,0.00
5.400,6.244,0.00
5.417,6.351,0.00
5.433,6.574,0.00
5.450,6.584,0.00
5.467,6.185,0.00
5.483,5.280,0.00
5.500,4.301,0.00
5.517,3.586,0.00
5.533,3.330,0.00
5.550,3.266,0.00
5.567,3.190,0.00
5.583,3.165,0.00
5.600,3.196,0.00
5.617,3.228,0.00
5.633,3.265,0.00
5.650,3.219,0.00
5.667,3.257,0.00
5.683,3.322,0.00
5.700,3.417,0.00
5.717,3.871,0.00
5.733,4.538,0.00
5.750,5.266,0.00
5.767,5.841,0.00
5.783,6.158,0.00
5.800,6.087,0.00
5.817,5.872,0.00
5.833,5.824,0.00
5.850,6.091,0.00
5.867,6.601,0.00
5.883,7.460,0.00
5.900,7.718,0.00
5.917,8.679,0.00
5.933,9.739,0.00
5.950,11.032,0.00
5.967,14.078,0.00
5.983,19.667,0.00
6.000,24.852,0.00
6.017,28.041,0.00
6.033,28.808,0.00
6.050,26.628,0.00
6.067,22.415,0.00
6.083,19.419,0.00
6.100,16.940,0.00
6.117,14.226,0.00
6.133,12.222,0.00
6.150,10.795,0.00
6.167,8.460,0.00
6.183,6.484,0.00
6.200,5.482,0.00
6.217,4.699,0.00
6.233,3.863,0.00
6.250,3.254,0.00
6.267,2.749,0.00
6.283,2.262,0.00
6.300,1.979,0.00
6.317,1.748,0.00
6.333,1.453,0.00
6.350,1.175,0.00
6.367,0.828,0.00
6.383,0.573,0.00
6.400,0.438,0.00
6.417,0.360,0.00
6.433,0.325,0.00
6.450,0.298,0.00
6.467,0.052,0.00
6.483,-0.116,0.00
6.500,-0.024,0.00
6.517,0.301,0.00
6.533,0.535,0.00
6.550,-2.406,0.00
6.567,-9.171,0.00
6.583,56.387,0.00
6.600,-20.134,0.00
6.617,-102.249,0.00
6.633,34.826,0.00
6.650,504.841,0.00
6.667,1176.002,0.00
6.683,1934.058,0.00
6.700,2587.872,0.00
6.717,3002.847,0.00
6.733,3224.513,0.00
6.750,3365.875,0.00
6.767,3304.572,0.00
6.783,3221.248,0.00
6.800,3205.775,0.00
6.817,3244.147,0.00
6.833,3240.267,0.00
6.850,3241.142,0.00
6.867,3240.307,0.00
6.883,3238.684,0.00
6.900,3238.797,0.00
6.917,3241.775,0.00
6.933,3247.071,0.00
6.950,3250.477,0.00
6.967,3253.234,0.00
6.983,3253.517,0.00
7.000,3252.019,0.00
7.017,3251.909,0.00
7.033,3253.132,0.00
7.050,3253.393,0.00
7.067,3252.486,0.00
7.083,3250.634,0.00
7.100,3249.136,0.00
7.117,3247.213,0.00
7.133,3247.603,0.00
7.150,3249.056,0.00
7.167,3249.802,0.00
7.183,3249.554,0.00
7.200,3247.491,0.00
7.217,3245.567,0.00
7.233,3244.818,0.00
7.250,3245.516,0.00
7.267,3246.219,0.00
7.283,3245.390,0.00
7.300,3244.114,0.00
7.317,3242.539,0.00
7.333,3241.495,0.00
7.350,3241.128,0.00
7.367,3241.027,0.00
7.383,3241.125,0.00
7.400,3238.591,0.00
7.417,3233.864,0.00
7.433,3227.263,0.00
7.450,3220.220,0.00
7.467,3214.583,0.00
7.483,3209.029,0.00
7.500,3202.558,0.00
7.517,3195.427,0.00
7.533,3188.888,0.00
7.550,3183.822,0.00
7.567,3178.584,0.00
7.583,3173.328,0.00
7.600,3166.312,0.00
7.617,3157.886,0.00
7.633,3151.217,0.00
7.650,3145.462,0.00
7.667,3139.116,0.00
7.683,3133.077,0.00
7.700,3126.449,0.00
7.717,3121.296,0.00
7.733,3116.954,0.00
7.750,3112.667,0.00
7.767,3107.172,0.00
7.783,3101.090,0.00
7.800,3095.108,0.00
7.817,3088.444,0.00
7.833,3081.794,0.00
7.850,3075.859,0.00
7.867,3070.257,0.00
7.883,3064.247,0.00
7.900,3057.573,0.00
7.917,3051.012,0.00
7.933,3045.051,0.00
7.950,3039.341,0.00
7.967,3033.539,0.00
7.983,3028.022,0.00
8.000,3022.199,0.00
8.017,3015.544,0.00
8.033,3008.019,0.00
8.050,2999.824,0.00
8.067,2992.163,0.00
8.083,2986.153,0.00
8.100,2980.188,0.00
8.117,2973.777,0.00
8.133,2966.478,0.00
8.150,2959.944,0.00
8.167,2953.668,0.00
8.183,2948.086,0.00
8.200,2942.799,0.00
8.217,2937.534,0.00
8.233,2931.764,0.00
8.250,2925.638,0.00
8.267,2919.394,0.00
8.283,2913.654,0.00
8.300,2908.714,0.00
8.317,2904.663,0.00
8.333,2900.188,0.00
8.350,2894.634,0.00
8.367,2888.197,0.00
8.383,2882.267,0.00
8.400,2877.697,0.00
8.417,2873.678,0.00
8.433,2869.816,0.00
8.450,2864.699,0.00
8.467,2859.809,0.00
8.483,2855.939,0.00
8.500,2853.244,0.00
8.517,2850.312,0.00
8.533,2847.597,0.00
8.550,2845.931,0.00
8.567,2844.188,0.00
8.583,2843.205,0.00
8.600,2843.231,0.00
8.617,2842.752,0.00
8.633,2840.902,0.00
8.650,2837.892,0.00
8.667,2834.637,0.00
8.683,2832.445,0.00
8.700,2832.430,0.00
8.717,2834.133,0.00
8.733,2834.804,0.00
8.750,2833.724,0.00
8.767,2831.235,0.00
8.783,2827.602,0.00
8.800,2824.166,0.00
8.817,2820.845,0.00
8.833,2816.831,0.00
8.850,2812.511,0.00
8.867,2807.740,0.00
8.883,2803.957,0.00
8.900,2801.122,0.00
8.917,2798.227,0.00
8.933,2794.551,0.00
8.950,2790.259,0.00
8.967,2786.234,0.00
8.983,2782.349,0.00
9.000,2779.179,0.00
9.017,2776.072,0.00
9.033,2771.823,0.00
9.050,2767.942,0.00
9.067,2764.515,0.00
9.083,2760.845,0.00
9.100,2757.280,0.00
9.117,2754.076,0.00
9.133,2749.928,0.00
9.150,2745.261,0.00
9.167,2741.221,0.00
9.183,2740.503,0.00
9.200,2738.977,0.00
9.217,2729.575,0.00
9.233,2720.833,0.00
9.250,2727.099,0.00
9.267,2766.375,0.00
9.283,2846.436,0.00
9.300,2944.579,0.00
9.317,3024.586,0.00
9.333,3063.922,0.00
9.350,3069.330,0.00
9.367,3058.439,0.00
9.383,3046.272,0.00
9.400,3042.765,0.00
9.417,3040.193,0.00
9.433,3033.849,0.00
9.450,3027.022,0.00
9.467,3019.540,0.00
9.483,3012.624,0.00
9.500,3006.657,0.00
9.517,3002.269,0.00
9.533,2999.657,0.00
9.550,2996.707,0.00
9.567,2990.649,0.00
9.583,2983.848,0.00
9.600,2980.454,0.00
9.617,2985.857,0.00
9.633,3005.441,0.00
9.650,3030.770,0.00
9.667,3044.893,0.00
9.683,3040.454,0.00
9.700,3018.581,0.00
9.717,2983.071,0.00
9.733,2953.878,0.00
9.750,2951.576,0.00
9.767,2986.521,0.00
9.783,3062.491,0.00
9.800,3157.481,0.00
9.817,3241.275,0.00
9.833,3274.342,0.00
9.850,3261.680,0.00
9.867,3321.652,0.00
9.883,3413.964,0.00
9.900,3277.305,0.00
9.917,2789.264,0.00
9.933,2076.700,0.00
9.950,1382.483,0.00
9.967,902.902,0.00
9.983,664.427,0.00
10.000,507.165,0.00
10.017,310.985,0.00
10.033,170.331,0.00
10.050,120.672,0.00
10.067,74.960,0.00
10.083,30.507,0.00
10.100,4.438,0.00
10.117,-7.828,0.00
10.133,-8.837,0.00
10.150,-6.652,0.00
10.167,-5.183,0.00
10.183,-4.001,0.00
10.200,-3.384,0.00
10.217,-3.185,0.00
10.233,-2.633,0.00
10.250,-1.822,0.00
10.267,-1.424,0.00
10.283,-1.417,0.00
10.300,-1.529,0.00
10.317,-1.657,0.00
10.333,-1.663,0.00
10.350,-1.508,0.00
10.367,-1.413,0.00
10.383,-1.243,0.00
10.400,-0.960,0.00
10.417,-0.519,0.00
10.433,-0.141,0.00
10.450,0.010,0.00
10.467,-0.199,0.00
10.483,-0.683,0.00
10.500,-1.179,0.00
10.517,-1.198,0.00
10.533,-0.348,0.00
10.550,0.847,0.00
10.567,1.467,0.00
10.583,1.237,0.00
10.600,0.340,0.00
10.617,-0.734,0.00
10.633,-1.365,0.00
10.650,-1.426,0.00
10.667,-1.418,0.00
10.683,-1.505,0.00
10.700,-1.486,0.00
10.717,-1.439,0.00
10.733,-1.461,0.00
10.750,-1.506,0.00
10.767,-1.567,0.00
10.783,-1.564,0.00
10.800,-1.455,0.00
10.817,-1.319,0.00
10.833,-1.232,0.00
10.850,-1.244,0.00
10.867,-1.271,0.00
10.883,-1.293,0.00
10.900,-1.449,0.00
10.917,-1.042,0.00
10.933,-0.941,0.00
10.950,-2.216,0.00
10.967,2.588,0.00
10.983,12.742,0.00
11.000,21.531,0.00
11.017,22.934,0.00
11.033,16.233,0.00
11.050,5.968,0.00
11.067,-1.135,0.00
11.083,-1.344,0.00
11.100,0.623,0.00
11.117,-0.572,0.00
11.133,-0.607,0.00
11.150,-0.436,0.00
11.167,-0.434,0.00
11.183,-0.485,0.00
11.200,-0.522,0.00
11.217,-0.548,0.00
11.233,-0.521,0.00
11.250,-0.401,0.00
11.267,-0.233,0.00
11.283,-0.096,0.00
11.300,-0.162,0.00
11.317,-0.312,0.00
11.333,-0.511,0.00
11.350,-0.599,0.00
11.367,-0.663,0.00
11.383,-0.692,0.00
11.400,-0.735,0.00
11.417,-0.754,0.00
11.433,-0.689,0.00
11.450,-0.676,0.00
11.467,-0.561,0.00
11.483,-0.140,0.00
11.500,0.529,0.00
11.517,1.388,0.00
11.533,2.046,0.00
11.550,2.042,0.00
11.567,1.232,0.00
11.583,0.086,0.00
11.600,-0.914,0.00
11.617,-1.522,0.00
11.633,-1.636,0.00
11.650,-1.668,0.00
11.667,-1.874,0.00
11.683,-2.017,0.00
11.700,-2.181,0.00
11.717,-2.193,0.00
11.733,-1.691,0.00
11.750,-1.163,0.00
11.767,-0.649,0.00
11.783,1.068,0.00
11.800,4.139,0.00
11.817,6.833,0.00
11.833,7.468,0.00
11.850,5.578,0.00
11.867,2.121,0.00
11.883,-0.766,0.00
11.900,-1.638,0.00
11.917,-1.629,0.00
11.933,-1.806,0.00
11.950,-1.946,0.00
11.967,-1.970,0.00
11.983,-1.903,0.00
12.000,-1.646,0.00
12.017,-1.386,0.00
12.033,-1.217,0.00
12.050,-1.216,0.00
12.067,-1.326,0.00
12.083,-1.522,0.00
12.100,-1.638,0.00
12.117,-1.821,0.00
12.133,-2.108,0.00
12.150,-2.118,0.00
12.167,0.449,0.00
12.183,5.986,0.00
12.200,2.783,0.00
12.217,-8.495,0.00
12.233,69.714,0.00
12.250,379.696,0.00
12.267,865.434,0.00
12.283,1245.644,0.00
12.300,1260.220,0.00
12.317,895.501,0.00
12.333,396.952,0.00
12.350,57.493,0.00
12.367,-30.817,0.00
12.383,-2.473,0.00
12.400,9.807,0.00
12.417,4.249,0.00
12.433,2.331,0.00
12.450,2.622,0.00
12.467,1.770,0.00
12.483,0.622,1.41
12.500,0.417,1.42
12.517,0.841,1.44
12.533,1.790,1.46
12.550,4.745,1.48
12.567,9.585,1.50
12.583,15.483,1.52
12.600,18.899,1.54
12.617,17.855,1.56
12.633,12.981,1.58
12.650,7.132,1.59
12.667,2.897,1.61
12.683,0.680,1.63
12.700,-0.020,1.65
12.717,-0.331,1.67
12.733,-0.883,1.70
12.750,-1.283,1.72
12.767,-1.651,1.74
12.783,-1.772,1.76
12.800,-1.772,1.78
12.817,-1.707,1.80
12.833,-1.596,1.82
12.850,-1.398,1.84
12.867,-1.286,1.87
12.883,-1.245,1.89
12.900,-1.309,1.91
12.917,-1.398,1.93
12.933,-1.341,1.96
12.950,-1.132,1.98
12.967,-0.867,2.00
12.983,-0.662,2.02
13.000,-0.626,2.05
13.017,-0.806,2.07
13.033,-1.097,2.10
13.050,-1.214,2.12
13.067,-1.179,2.14
13.083,-1.088,2.17
13.100,-0.941,2.19
13.117,-0.867,2.22
13.133,-0.840,2.24
13.150,-0.803,2.27
13.167,-0.698,2.29
13.183,-0.614,2.32
13.200,-0.479,2.34
13.217,-0.294,2.37
13.233,-0.275,2.40
13.250,-0.218,2.42
13.267,-0.044,2.45
13.283,0.239,2.48
13.300,0.447,2.50
13.317,0.368,2.53
13.333,0.116,2.56
13.350,-0.097,2.59
13.367,-0.089,2.61
13.383,-0.058,2.64
13.400,-0.206,2.67
13.417,-0.280,2.70
13.433,-0.368,2.73
13.450,-0.398,2.76
13.467,-0.441,2.79
13.483,-0.562,2.82
13.500,-0.637,2.85
13.517,-0.573,2.88
13.533,-0.414,2.91
13.550,-0.272,2.94
13.567,-0.197,2.97
13.583,-0.169,3.00
13.600,-0.179,3.03
13.617,-0.208,3.06
13.633,-0.268,3.09
13.650,-0.244,3.12
13.667,-0.175,3.15
13.683,-0.087,3.19
13.700,-0.030,3.22
13.717,-0.027,3.25
13.733,-0.053,3.28
13.750,-0.095,3.32
13.767,-0.020,3.35
13.783,0.022,3.38
13.800,0.010,3.42
13.817,0.041,3.45
13.833,0.087,3.48
13.850,0.255,3.52
13.867,0.373,3.55
13.883,0.404,3.59
13.900,0.413,3.62
13.917,0.420,3.66
13.933,0.466,3.69
13.950,0.398,3.73
13.967,0.259,3.77
13.983,0.132,3.80
14.000,0.038,3.84
14.017,0.011,3.88
14.033,0.038,3.91
14.050,0.169,3.95
14.067,0.267,3.99
14.083,0.261,4.03
14.100,0.164,4.06
14.117,0.027,4.10
14.133,-0.050,4.14
14.150,-0.052,4.18
14.167,-0.108,4.22
14.183,-0.221,4.26
14.200,-0.416,4.30
14.217,-0.465,4.34
14.233,-0.219,4.38
14.250,0.224,4.42
14.267,0.642,4.46
14.283,0.943,4.50
14.300,1.008,4.54
14.317,1.037,4.58
14.333,1.264,4.62
14.350,2.027,4.66
14.367,3.086,4.71
14.383,4.124,4.75
14.400,4.846,4.79
14.417,4.751,4.83
14.433,3.853,4.88
14.450,2.633,4.92
14.467,1.458,4.96
14.483,0.599,5.01
14.500,-0.011,5.05
14.517,-0.468,5.09
14.533,-0.886,5.14
14.550,-1.357,5.18
14.567,-1.716,5.23
14.583,-2.013,5.27
14.600,-2.218,5.32
14.617,-2.210,5.37
14.633,-1.939,5.41
14.650,-1.432,5.46
14.667,-0.805,5.51
14.683,-0.324,5.55
14.700,-0.097,5.60
14.717,-0.063,5.65
14.733,-0.069,5.70
14.750,-0.088,5.74
14.767,-0.174,5.79
14.783,-0.279,5.84
14.800,-0.454,5.89
14.817,-0.737,5.94
14.833,-1.032,5.99
14.850,-1.326,6.04
14.867,-1.474,6.09
14.883,-1.227,6.14
14.900,-0.394,6.19
14.917,1.108,6.24
14.933,3.099,6.29
14.950,5.146,6.34
14.967,6.977,6.39
14.983,8.376,6.44
15.000,9.170,6.50
15.017,9.391,6.55
15.033,9.081,6.60
15.050,8.287,6.65
15.067,7.377,6.71
15.083,6.786,6.76
15.100,6.843,6.82
15.117,7.620,6.87
15.133,8.963,6.92
15.150,10.581,6.98
15.167,12.392,7.03
15.183,14.241,7.09
15.200,15.432,7.14
15.217,15.169,7.20
15.233,13.211,7.26
15.250,10.178,7.31
15.267,7.401,7.37
15.283,6.036,7.43
15.300,5.965,7.48
15.317,6.423,7.54
15.333,7.183,7.60
15.350,8.200,7.66
15.367,9.350,7.72
15.383,10.416,7.77
15.400,11.084,7.83
15.417,11.557,7.89
15.433,13.112,7.95
15.450,17.268,8.01
15.467,23.633,8.07
15.483,33.068,8.13
15.500,50.427,8.19
15.517,78.512,8.25
15.533,113.353,8.32
15.550,146.401,8.38
15.567,169.978,8.44
15.583,181.388,8.50
15.600,182.049,8.56
15.617,172.774,8.63
15.633,151.844,8.69
15.650,120.275,8.75
15.667,85.018,8.82
15.683,53.753,8.88
15.700,30.173,8.95
15.717,14.039,9.01
15.733,3.494,9.07
15.750,-2.995,9.14
15.767,-6.449,9.21
15.783,-7.972,9.27
15.800,-8.550,9.34
15.817,-8.437,9.40
15.833,-7.537,9.47
15.850,-6.407,9.54
15.867,-5.663,9.60
15.883,-5.426,9.67
15.900,-5.524,9.74
15.917,-5.716,9.81
15.933,-5.702,9.88
15.950,-5.467,9.95
15.967,-5.228,10.01
15.983,-4.957,10.08
16.000,-4.601,10.15
16.017,-4.543,10.22
16.033,-4.817,10.29
16.050,-5.189,10.36
16.067,-5.354,10.44
16.083,-5.178,10.51
16.100,-4.819,10.58
16.117,-4.553,10.65
16.133,-4.312,10.72
16.150,-3.970,10.79
16.167,-3.370,10.87
16.183,-2.495,10.94
16.200,-1.718,11.01
16.217,-1.347,11.09
16.233,-1.397,11.16
16.250,-1.555,11.24
16.267,-1.535,11.31
16.283,-0.917,11.39
16.300,0.186,11.46
16.317,1.023,11.54
16.333,2.476,11.61
16.350,4.074,11.69
16.367,4.586,11.77
16.383,3.263,11.84
16.400,0.559,11.92
16.417,-2.046,12.00
16.433,-3.216,12.07
16.450,-2.635,12.15
16.467,-1.811,12.23
16.483,-2.238,12.31
16.500,-2.914,12.39
16.517,-3.421,12.47
16.533,-3.325,12.55
16.550,-2.798,12.63
16.567,-2.118,12.71
16.583,-1.478,12.79
16.600,-0.855,12.87
16.617,-0.276,12.95
16.633,0.034,13.03
16.650,-0.059,13.11
16.667,-0.456,13.20
16.683,-0.836,13.28
16.700,-1.079,13.36
16.717,-1.141,13.44
16.733,-0.966,13.53
16.750,-0.576,13.61
16.767,0.172,13.70
16.783,1.301,13.78
16.800,2.597,13.86
16.817,3.881,13.95
16.833,5.165,14.03
16.850,6.047,14.12
16.867,5.817,14.21
16.883,4.218,14.29
16.900,1.847,14.38
16.917,-0.290,14.47
16.933,-1.322,14.55
16.950,-1.226,14.64
16.967,-0.728,14.73
16.983,-0.272,14.82
17.000,0.166,14.91
17.017,0.697,14.99
17.033,1.130,15.08
17.050,1.261,15.17
17.067,1.159,15.26
17.083,0.988,15.35
17.100,1.015,15.44
17.117,1.131,15.53
17.133,1.252,15.63
17.150,1.344,15.72
17.167,1.432,15.81
17.183,1.791,15.90
17.200,2.183,15.99
17.217,2.520,16.09
17.233,2.850,16.18
17.250,3.226,16.27
17.267,3.589,16.37
17.283,4.016,16.46
17.300,4.670,16.55
17.317,6.195,16.65
17.333,10.164,16.74
17.350,17.974,16.84
17.367,29.472,16.93
17.383,41.499,17.03
17.400,49.102,17.13
17.417,48.860,17.22
17.433,41.186,17.32
17.450,30.425,17.42
17.467,20.644,17.51
17.483,14.206,17.61
17.500,10.745,17.71
17.517,8.622,17.81
17.533,7.314,17.91
17.550,6.421,18.01
17.567,5.899,18.11
17.583,5.881,18.21
17.600,6.235,18.31
17.617,6.761,18.41
17.633,6.688,18.51
17.650,6.472,18.61
17.667,6.848,18.71
17.683,9.077,18.81
17.700,13.044,18.91
17.717,16.988,19.02
17.733,18.659,19.12
17.750,17.144,19.22
17.767,13.337,19.33
17.783,9.243,19.43
17.800,6.703,19.53
17.817,6.166,19.64
17.833,6.952,19.74
17.850,8.652,19.85
17.867,10.635,19.95
17.883,12.958,20.06
17.900,15.468,20.16
17.917,18.335,20.27
17.933,21.363,20.38
17.950,23.728,20.48
17.967,24.537,20.59
17.983,22.709,20.70
18.000,18.354,20.81
18.017,12.795,20.91
18.033,8.039,21.02
18.050,5.313,21.13
18.067,4.639,21.24
18.083,5.590,21.35
18.100,7.978,21.46
18.117,11.621,21.57
18.133,15.699,21.68
18.150,19.638,21.79
18.167,22.580,21.90
18.183,25.233,22.02
18.200,29.469,22.13
18.217,35.187,22.24
18.233,39.865,22.35
18.250,40.798,22.46
18.267,38.989,22.58
18.283,44.768,22.69
18.300,77.245,22.80
18.317,149.856,22.92
18.333,246.682,23.03
18.350,324.914,23.15
18.367,343.495,23.26
18.383,295.569,23.38
18.400,213.075,23.49
18.417,145.212,23.61
18.433,122.414,23.73
18.450,146.498,23.84
18.467,198.692,23.96
18.483,254.266,24.08
18.500,287.195,24.20
18.517,283.776,24.31
18.533,252.758,24.43
18.550,224.436,24.55
18.567,225.051,24.67
18.583,254.047,24.79
18.600,281.191,24.91
18.617,274.940,25.03
18.633,227.277,25.15
18.650,157.228,25.27
18.667,93.484,25.39
18.683,53.091,25.51
18.700,34.337,25.63
18.717,28.500,25.75
18.733,28.482,25.88
18.750,32.101,26.00
18.767,39.951,26.12
18.783,51.957,26.25
18.800,64.462,26.37
18.817,70.692,26.49
18.833,67.409,26.62
18.850,54.616,26.74
18.867,38.787,26.87
18.883,26.279,26.99
18.900,19.567,27.12
18.917,17.382,27.24
18.933,17.391,27.37
18.950,17.780,27.49
18.967,17.961,27.62
18.983,17.844,27.75
19.000,17.593,27.88
19.017,17.017,28.00
19.033,17.459,28.13
19.050,18.972,28.26
19.067,20.999,28.39
19.083,22.566,28.52
19.100,23.046,28.65
19.117,22.130,28.78
19.133,20.102,28.91
19.150,17.897,29.04
19.167,16.214,29.17
19.183,15.280,29.30
19.200,15.013,29.43
19.217,15.156,29.56
19.233,15.221,29.69
19.250,15.031,29.82
19.267,14.547,29.96
19.283,13.756,30.09
19.300,12.441,30.22
19.317,11.268,30.36
19.333,10.740,30.49
19.350,11.210,30.62
19.367,13.048,30.76
19.383,15.940,30.89
19.400,18.902,31.03
19.417,20.915,31.16
19.433,21.462,31.30
19.450,20.766,31.44
19.467,19.454,31.57
19.483,18.520,31.71
19.500,18.254,31.85
19.517,18.522,31.98
19.533,19.184,32.12
19.550,20.154,32.26
19.567,21.387,32.40
19.583,22.874,32.54
19.600,24.433,32.67
19.617,25.443,32.81
19.633,25.805,32.95
19.650,25.604,33.09
19.667,25.180,33.23
19.683,25.481,33.37
19.700,26.789,33.51
19.717,29.039,33.66
19.733,31.695,33.80
19.750,34.609,33.94
19.767,37.395,34.08
19.783,40.184,34.22
19.800,43.344,34.37
19.817,45.903,34.51
19.833,46.141,34.65
19.850,43.331,34.80
19.867,38.275,34.94
19.883,33.210,35.08
19.900,30.012,35.23
19.917,29.577,35.37
19.933,31.279,35.52
19.950,34.207,35.66
19.967,38.202,35.81
19.983,43.802,35.96
20.000,51.530,36.10
20.017,63.131,36.25
20.033,82.179,36.40
20.050,114.774,36.54
20.067,164.601,36.69
20.083,229.391,36.84
20.100,297.777,36.99
20.117,353.368,37.14
20.133,384.452,37.28
20.150,387.396,37.43
20.167,369.240,37.58
20.183,337.441,37.73
20.200,297.437,37.88
20.217,252.924,38.03
20.233,206.486,38.18
20.250,162.070,38.34
20.267,123.425,38.49
20.283,92.840,38.64
20.300,70.590,38.79
20.317,54.365,38.94
20.333,43.429,39.10
20.350,35.251,39.25
20.367,29.139,39.40
20.383,24.556,39.55
20.400,21.217,39.71
20.417,18.914,39.86
20.433,17.317,40.02
20.450,16.001,40.17
20.467,14.931,40.33
20.483,14.216,40.48
20.500,13.989,40.64
20.517,14.574,40.79
20.533,16.112,40.95
20.550,18.929,41.11
20.567,24.115,41.26
20.583,33.059,41.42
20.600,46.667,41.58
20.617,65.729,41.74
20.633,90.825,41.89
20.650,122.391,42.05
20.667,160.852,42.21
20.683,206.638,42.37
20.700,258.770,42.53
20.717,313.934,42.69
20.733,364.764,42.85
20.750,400.173,43.01
20.767,409.306,43.17
20.783,387.034,43.33
20.800,337.147,43.49
20.817,271.100,43.65
20.833,202.867,43.82
20.850,143.614,43.98
20.867,98.774,44.14
20.883,68.806,44.30
20.900,51.473,44.47
20.917,43.656,44.63
20.933,41.056,44.79
20.950,47.988,44.96
20.967,77.997,45.12
20.983,144.706,45.28
21.000,252.293,45.45
21.017,390.328,45.61
21.033,536.803,45.78
21.050,666.946,45.94
21.067,761.021,46.11
21.083,807.143,46.28
21.100,800.210,46.44
21.117,747.221,46.61
21.133,662.438,46.78
21.150,559.857,46.94
21.167,451.946,47.11
21.183,349.357,47.28
21.200,259.949,47.45
21.217,188.051,47.62
21.233,133.938,47.79
21.250,95.339,47.95
21.267,69.355,48.12
21.283,53.545,48.29
21.300,45.282,48.46
21.317,41.145,48.63
21.333,39.295,48.80
21.350,39.951,48.98
21.367,43.747,49.15
21.383,50.973,49.32
21.400,61.772,49.49
21.417,75.677,49.66
21.433,90.721,49.83
21.450,103.727,50.01
21.467,111.697,50.18
21.483,113.302,50.35
21.500,109.398,50.53
21.517,102.441,50.70
21.533,95.189,50.87
21.550,89.260,51.05
21.567,85.067,51.22
21.583,82.336,51.40
21.600,80.380,51.57
21.617,78.547,51.75
21.633,76.782,51.92
21.650,75.497,52.10
21.667,75.012,52.28
21.683,75.551,52.45
21.700,76.627,52.63
21.717,76.856,52.81
21.733,74.755,52.99
21.750,69.554,53.16
21.767,61.588,53.34
21.783,51.936,53.52
21.800,42.278,53.70
21.817,34.142,53.88
21.833,28.212,54.06
21.850,24.815,54.24
21.867,23.557,54.42
21.883,23.469,54.60
21.900,23.827,54.78
21.917,24.139,54.96
21.933,24.351,55.14
21.950,24.419,55.32
21.967,23.938,55.50
21.983,22.562,55.68
22.000,20.180,55.86
22.017,17.420,56.05
22.033,15.214,56.23
22.050,14.188,56.41
22.067,14.424,56.59
22.083,15.581,56.78
22.100,17.553,56.96
22.117,20.532,57.14
22.133,24.686,57.33
22.150,30.643,57.51
22.167,38.778,57.70
22.183,49.723,57.88
22.200,64.804,58.07
22.217,83.931,58.25
22.233,106.644,58.44
22.250,131.551,58.63
22.267,157.223,58.81
22.283,182.650,59.00
22.300,206.799,59.19
22.317,228.241,59.37
22.333,243.547,59.56
22.350,249.422,59.75
22.367,244.562,59.94
22.383,228.971,60.12
22.400,205.072,60.31
22.417,175.610,60.50
22.433,143.564,60.69
22.450,111.690,60.88
22.467,82.759,61.07
22.483,59.009,61.26
22.500,41.114,61.45
22.517,28.645,61.64
22.533,20.547,61.83
22.550,15.704,62.02
22.567,13.091,62.21
22.583,11.780,62.41
22.600,11.034,62.60
22.617,10.663,62.79
22.633,11.115,62.98
22.650,13.095,63.17
22.667,17.246,63.37
22.683,23.388,63.56
22.700,30.509,63.75
22.717,37.376,63.95
22.733,42.957,64.14
22.750,46.474,64.34
22.767,47.776,64.53
22.783,47.548,64.72
22.800,46.887,64.92
22.817,47.510,65.11
22.833,51.126,65.31
22.850,58.883,65.51
22.867,70.931,65.70
22.883,86.304,65.90
22.900,102.441,66.09
22.917,116.589,66.29
22.933,127.148,66.49
22.950,133.753,66.69
22.967,136.533,66.88
22.983,136.508,67.08
23.000,133.987,67.28
23.017,128.859,67.48
23.033,120.925,67.68
23.050,110.191,67.88
23.067,96.864,68.07
23.083,81.968,68.27
23.100,66.758,68.47
23.117,52.211,68.67
23.133,38.802,68.87
23.150,27.311,69.07
23.167,19.073,69.27
23.183,15.036,69.48
23.200,15.058,69.68
23.217,17.933,69.88
23.233,22.121,70.08
23.250,26.529,70.28
23.267,30.263,70.48
23.283,32.775,70.69
23.300,33.490,70.89
23.317,31.876,71.09
23.333,28.547,71.29
23.350,23.878,71.50
23.367,18.705,71.70
23.383,13.670,71.91
23.400,9.689,72.11
23.417,7.231,72.31
23.433,6.211,72.52
23.450,6.011,72.72
23.467,6.058,72.93
23.483,6.013,73.13
23.500,5.813,73.34
23.517,5.307,73.55
23.533,4.882,73.75
23.550,4.707,73.96
23.567,4.640,74.16
23.583,4.383,74.37
23.600,3.906,74.58
23.617,3.491,74.79
23.633,3.687,74.99
23.650,4.715,75.20
23.667,6.257,75.41
23.683,7.661,75.62
23.700,8.810,75.83
23.717,9.501,76.04
23.733,9.589,76.24
23.750,9.357,76.45
23.767,8.994,76.66
23.783,8.111,76.87
23.800,7.706,77.08
23.817,8.586,77.29
23.833,10.592,77.50
23.850,13.095,77.71
23.867,15.441,77.93
23.883,17.499,78.14
23.900,19.922,78.35
23.917,23.019,78.56
23.933,26.204,78.77
23.950,28.013,78.98
23.967,28.572,79.20
23.983,27.849,79.41
24.000,26.132,79.62
24.017,23.428,79.84
24.033,19.799,80.05
24.050,15.562,80.26
24.067,11.416,80.48
24.083,7.641,80.69
24.100,4.435,80.90
24.117,1.983,81.12
24.133,0.135,81.33
24.150,-1.338,81.55
24.167,-2.303,81.76
24.183,-2.985,81.98
24.200,-3.335,82.20
24.217,-3.712,82.41
24.233,-3.958,82.63
24.250,-4.158,82.84
24.267,-4.358,83.06
24.283,-4.507,83.28
24.300,-4.618,83.49
24.317,-4.751,83.71
24.333,-4.739,83.93
24.350,-4.729,84.15
24.367,-4.495,84.37
24.383,-4.286,84.58
24.400,-3.886,84.80
24.417,-3.238,85.02
24.433,-2.670,85.24
24.450,-1.956,85.46
24.467,-1.229,85.68
24.483,-0.573,85.90
24.500,0.074,86.12
24.517,0.234,86.34
24.533,1.919,86.56
24.550,-0.329,86.78
24.567,-1.555,87.00
24.583,1.593,87.22
24.600,6.497,87.44
24.617,9.709,87.66
24.633,8.698,87.88
24.650,4.237,88.11
24.667,-0.313,88.33
24.683,-1.015,88.55
24.700,2.792,88.77
24.717,3.483,88.99
24.733,4.377,89.22
24.750,5.416,89.44
24.767,6.153,89.66
24.783,6.538,89.89
24.800,6.450,90.11
24.817,5.959,90.34
24.833,5.044,90.56
24.850,3.885,90.78
24.867,2.651,91.01
24.883,1.604,91.23
24.900,0.633,91.46
24.917,-0.176,91.68
24.933,-1.361,91.91
24.950,-2.238,92.14
24.967,-2.129,92.36
24.983,-1.399,92.59
25.000,-0.898,92.81
25.017,-1.395,93.04
25.033,-2.657,93.27
25.050,-3.807,93.49
25.067,-4.321,93.72
25.083,-3.928,93.95
25.100,-3.797,94.18
25.117,-3.709,94.40
25.133,-3.562,94.63
25.150,-3.419,94.86
25.167,-3.183,95.09
25.183,-3.076,95.32
25.200,-2.845,95.55
25.217,-2.452,95.78
25.233,-1.884,96.01
25.250,-1.320,96.24
25.267,-0.482,96.46
25.283,0.606,96.69
25.300,1.783,96.93
25.317,2.907,97.16
25.333,3.703,97.39
25.350,4.116,97.62
25.367,4.995,97.85
25.383,6.667,98.08
25.400,9.649,98.31
25.417,13.792,98.54
25.433,19.679,98.77
25.450,26.902,99.01
25.467,35.277,99.24
25.483,44.523,99.47
25.500,53.430,99.70
25.517,60.614,99.94
25.533,65.529,100.17
25.550,68.094,100.40
25.567,68.340,100.64
25.583,66.814,100.87
25.600,63.907,101.10
25.617,59.477,101.34
25.633,54.056,101.57
25.650,48.221,101.81
25.667,42.630,102.04
25.683,37.689,102.28
25.700,33.900,102.51
25.717,31.478,102.75
25.733,29.610,102.98
25.750,28.316,103.22
25.767,27.261,103.45
25.783,26.098,103.69
25.800,24.818,103.92
25.817,23.176,104.16
25.833,21.063,104.40
25.850,18.526,104.63
25.867,16.002,104.87
25.883,13.600,105.11
25.900,11.388,105.35
25.917,9.634,105.58
25.933,8.335,105.82
25.950,7.493,106.06
25.967,7.403,106.30
25.983,8.006,106.54
26.000,9.250,106.77
26.017,11.439,107.01
26.033,14.632,107.25
26.050,18.468,107.49
26.067,22.570,107.73
26.083,26.495,107.97
26.100,30.097,108.21
26.117,33.001,108.45
26.133,34.864,108.69
26.150,35.458,108.93
26.167,34.634,109.17
26.183,32.823,109.41
26.200,30.346,109.65
26.217,27.578,109.89
26.233,24.705,110.13
26.250,22.045,110.37
26.267,19.902,110.62
26.283,18.189,110.86
26.300,17.282,111.10
26.317,17.452,111.34
26.333,18.260,111.58
26.350,19.297,111.83
26.367,19.936,112.07
26.383,19.993,112.31
26.400,19.655,112.55
26.417,19.097,112.80
26.433,18.136,113.04
26.450,16.673,113.29
26.467,14.748,113.53
26.483,12.565,113.77
26.500,10.372,114.02
26.517,8.364,114.26
26.533,6.514,114.51
26.550,4.699,114.75
26.567,3.014,115.00
26.583,1.605,115.24
26.600,0.508,115.49
26.617,-0.243,115.73
26.633,-0.779,115.98
26.650,-1.171,116.22
26.667,-1.536,116.47
26.683,-1.793,116.71
26.700,-1.950,116.96
26.717,-2.092,117.21
26.733,-2.253,117.45
26.750,-2.386,117.70
26.767,-2.486,117.95
26.783,-2.535,118.19
26.800,-2.499,118.44
26.817,-2.387,118.69
26.833,-2.311,118.94
26.850,-2.327,119.18
26.867,-2.421,119.43
26.883,-2.469,119.68
26.900,-2.446,119.93
26.917,-2.421,120.18
26.933,-2.447,120.43
26.950,-2.324,120.67
26.967,-2.032,120.92
26.983,-1.561,121.17
27.000,-1.124,121.42
27.017,-0.883,121.67
27.033,-0.774,121.92
27.050,-0.523,122.17
27.067,0.036,122.42
27.083,0.841,122.67
27.100,1.673,122.92
27.117,2.731,123.17
27.133,4.118,123.42
27.150,5.760,123.67
27.167,7.362,123.92
27.183,8.725,124.18
27.200,9.677,124.43
27.217,10.204,124.68
27.233,10.408,124.93
27.250,10.248,125.18
27.267,9.660,125.43
27.283,8.787,125.69
27.300,7.740,125.94
27.317,6.559,126.19
27.333,5.304,126.44
27.350,4.008,126.70
27.367,2.679,126.95
27.383,1.449,127.20
27.400,0.536,127.46
27.417,-0.118,127.71
27.433,-0.673,127.96
27.450,-1.060,128.22
27.467,-1.182,128.47
27.483,-1.121,128.73
27.500,-1.099,128.98
27.517,-1.328,129.23
27.533,-1.731,129.49
27.550,-1.988,129.74
27.567,-1.920,130.00
27.583,-1.710,130.25
27.600,-1.735,130.51
27.617,-1.971,130.76
27.633,-2.181,131.02
27.650,-2.282,131.28
27.667,-2.319,131.53
27.683,-2.306,131.79
27.700,-2.135,132.04
27.717,-1.777,132.30
27.733,-1.352,132.56
27.750,-1.089,132.81
27.767,-1.207,133.07
27.783,-1.558,133.33
27.800,-1.811,133.58
27.817,-1.848,133.84
27.833,-1.808,134.10
27.850,-1.743,134.36
27.867,-1.892,134.61
27.883,-2.157,134.87
27.900,-2.094,135.13
27.917,-1.797,135.39
27.933,-1.449,135.65
27.950,-1.250,135.90
27.967,-1.315,136.16
27.983,-1.509,136.42
28.000,-1.551,136.68
28.017,-1.328,136.94
28.033,-1.121,137.20
28.050,-0.904,137.46
28.067,-0.310,137.72
28.083,0.514,137.98
28.100,1.356,138.24
28.117,1.734,138.50
28.133,1.434,138.76
28.150,0.747,139.02
28.167,0.139,139.28
28.183,-0.205,139.54
28.200,-0.353,139.80
28.217,-0.463,140.06
28.233,-0.627,140.32
28.250,-0.805,140.58
28.267,-0.878,140.84
28.283,-0.851,141.10
28.300,-0.760,141.37
28.317,-0.622,141.63
28.333,-0.511,141.89
28.350,-0.601,142.15
28.367,-0.704,142.41
28.383,-0.729,142.68
28.400,-0.843,142.94
28.417,-0.918,143.20
28.433,-0.919,143.46
28.450,-0.950,143.73
28.467,-0.970,143.99
28.483,-0.971,144.25
28.500,-0.988,144.52
28.517,-1.110,144.78
28.533,-1.124,145.04
28.550,-1.027,145.31
28.567,-0.925,145.57
28.583,-0.779,145.83
28.600,-0.677,146.10
28.617,-0.660,146.36
28.633,-0.737,146.63
28.650,-0.757,146.89
28.667,-0.342,147.16
28.683,0.442,147.42
28.700,1.170,147.69
28.717,1.399,147.95
28.733,0.964,148.22
28.750,0.204,148.48
28.767,-0.371,148.75
28.783,-0.523,149.01
28.800,-0.485,149.28
28.817,-0.477,149.54
28.833,-0.417,149.81
28.850,-0.325,150.08
28.867,-0.308,150.34
28.883,-0.406,150.61
28.900,-0.621,150.87
28.917,-0.820,151.14
28.933,-0.876,151.41
28.950,-0.851,151.67
28.967,-0.738,151.94
28.983,-0.627,152.21
29.000,-0.517,152.48
29.017,-0.376,152.74
29.033,-0.373,153.01
29.050,-0.467,153.28
29.067,-0.040,153.55
29.083,1.000,153.81
29.100,2.094,154.08
29.117,2.368,154.35
29.133,1.737,154.62
29.150,0.614,154.89
29.167,-0.200,155.16
29.183,-0.368,155.42
29.200,-0.266,155.69
29.217,-0.389,155.96
29.233,-0.553,156.23
29.250,-0.697,156.50
29.267,-0.654,156.77
29.283,-0.469,157.04
29.300,-0.185,157.31
29.317,-0.020,157.58
29.333,-0.029,157.85
29.350,-0.174,158.12
29.367,-0.327,158.39
29.383,-0.399,158.66
29.400,-0.438,158.93
29.417,-0.443,159.20
29.433,-0.371,159.47
29.450,-0.246,159.74
29.467,-0.185,160.01
29.483,-0.246,160.28
29.500,-0.367,160.55
29.517,-0.380,160.82
29.533,-0.296,161.09
29.550,-0.188,161.37
29.567,-0.212,161.64
29.583,-0.093,161.91
29.600,0.110,162.18
29.617,0.341,162.45
29.633,0.424,162.72
29.650,0.284,163.00
29.667,-0.016,163.27
29.683,-0.345,163.54
29.700,-0.360,163.81
29.717,-0.156,164.09
29.733,0.019,164.36
29.750,0.134,164.63
29.767,0.069,164.90
29.783,0.035,165.18
29.800,0.134,165.45
29.817,0.379,165.72
29.833,0.630,166.00
29.850,0.687,166.27
29.867,0.736,166.54
29.883,0.654,166.82
29.900,0.547,167.09
29.917,0.470,167.37
29.933,0.450,167.64
29.950,0.540,167.91
29.967,0.565,168.19
29.983,0.499,168.46
30.000,0.353,168.74
30.017,0.184,169.01
30.033,0.007,169.29
30.050,-0.147,169.56
30.067,-0.225,169.84
30.083,-0.281,170.11
30.100,-0.230,170.39
30.117,-0.168,170.66
30.133,-0.181,170.94
30.150,-0.244,171.21
30.167,-0.220,171.49
30.183,-0.144,171.76
30.200,-0.233,172.04
30.217,-0.157,172.31
30.233,0.063,172.59
30.250,0.242,172.87
30.267,0.236,173.14
30.283,0.041,173.42
30.300,-0.153,173.70
30.317,-0.377,173.97
30.333,-0.120,174.25
30.350,0.798,174.53
30.367,1.771,174.80
30.383,2.435,175.08
30.400,2.238,175.36
30.417,1.392,175.63
30.433,0.429,175.91
30.450,0.058,176.19
30.467,0.285,176.47
30.483,0.427,176.74
30.500,0.444,177.02
30.517,0.470,177.30
30.533,0.443,177.58
30.550,0.282,177.85
30.567,0.050,178.13
30.583,-0.019,178.41
30.600,0.034,178.69
30.617,0.394,178.97
30.633,-0.208,179.25
30.650,-0.315,179.52
30.667,0.207,179.80
30.683,0.927,180.08
30.700,1.263,180.36
30.717,0.832,180.64
30.733,0.006,180.92
30.750,-0.612,181.20
30.767,-0.467,181.48
30.783,0.086,181.76
30.800,-0.252,182.04
30.817,-0.172,182.31
30.833,-0.215,182.59
30.850,-0.240,182.87
30.867,-0.261,183.15
30.883,-0.338,183.43
30.900,-0.402,183.71
30.917,-0.368,183.99
30.933,-0.416,184.27
30.950,-0.506,184.55
30.967,-0.414,184.84
30.983,-0.237,185.12
31.000,-0.111,185.40
31.017,-0.071,185.68
31.033,-0.177,185.96
31.050,-0.309,186.24
31.067,-0.178,186.52
31.083,0.054,186.80
31.100,0.322,187.08
31.117,0.000,187.36
31.133,0.123,187.64
31.150,0.714,187.93
31.167,1.376,188.21
31.183,1.659,188.49
31.200,1.173,188.77
31.217,0.309,189.05
31.233,-0.251,189.33
31.250,-0.204,189.62
31.267,0.168,189.90
31.283,-0.054,190.18
31.300,0.033,190.46
31.317,0.374,190.74
31.333,0.781,191.03
31.350,0.944,191.31
31.367,0.648,191.59
31.383,0.209,191.88
31.400,-0.100,192.16
31.417,-0.085,192.44
31.433,-0.046,192.72
31.450,-0.148,193.01
31.467,-0.286,193.29
31.483,-0.344,193.57
31.500,-0.328,193.86
31.517,-0.325,194.14
31.533,-0.254,194.42
31.550,-0.363,194.71
31.567,-0.471,194.99
31.583,-0.230,195.27
31.600,0.171,195.56
31.617,0.380,195.84
31.633,0.337,196.13
31.650,0.098,196.41
31.667,-0.124,196.69
31.683,-0.171,196.98
31.700,-0.071,197.26
31.717,-0.188,197.55
31.733,-0.310,197.83
31.750,-0.248,198.12
31.767,-0.225,198.40
31.783,-0.316,198.69
31.800,-0.431,198.97
31.817,-0.568,199.25
31.833,-0.439,199.54
31.850,0.020,199.82
31.867,0.318,200.11
31.883,0.375,200.39
31.900,0.287,200.68
31.917,0.128,200.97
31.933,-0.067,201.25
31.950,-0.083,201.54
31.967,-0.098,201.82
31.983,-0.293,202.11
32.000,-0.353,202.39
32.017,-0.102,202.68
32.033,0.101,202.97
32.050,0.160,203.25
32.067,0.085,203.54
32.083,-0.177,203.82
32.100,-0.402,204.11
32.117,-0.474,204.40
32.133,-0.426,204.68
32.150,-0.409,204.97
32.167,-0.415,205.26
32.183,-0.335,205.54
32.200,-0.307,205.83
32.217,-0.297,206.12
32.233,-0.307,206.40
32.250,-0.247,206.69
32.267,-0.111,206.98
32.283,-0.063,207.26
32.300,-0.099,207.55
32.317,-0.018,207.84
32.333,0.235,208.12
32.350,0.459,208.41
32.367,0.530,208.70
32.383,0.385,208.99
32.400,0.029,209.27
32.417,-0.224,209.56
32.433,-0.332,209.85
32.450,-0.355,210.14
32.467,-0.381,210.42
32.483,-0.398,210.71
32.500,-0.429,211.00
32.517,-0.447,211.29
32.533,-0.397,211.58
32.550,-0.304,211.87
32.567,-0.165,212.15
32.583,-0.012,212.44
32.600,0.061,212.73
32.617,0.127,213.02
32.633,0.137,213.31
32.650,0.428,213.60
32.667,-0.043,213.88
32.683,-0.482,214.17
32.700,0.679,214.46
32.717,3.040,214.75
32.733,4.881,215.04
32.750,4.840,215.33
32.767,3.016,215.62
32.783,0.644,215.91
32.800,-0.555,216.20
32.817,-0.033,216.49
32.833,0.205,216.77
32.850,-0.096,217.06
32.867,-0.210,217.35
32.883,-0.091,217.64
32.900,-0.146,217.93
32.917,-0.142,218.22
32.933,0.290,218.51
32.950,0.845,218.80
32.967,1.208,219.09
32.983,1.055,219.38
33.000,0.465,219.67
33.017,-0.188,219.96
33.033,-0.469,220.25
33.050,-0.283,220.54
33.067,-0.222,220.83
33.083,-0.248,221.12
33.100,-0.207,221.41
33.117,-0.090,221.70
33.133,0.060,221.99
33.150,0.108,222.28
33.167,0.102,222.57
33.183,0.083,222.87
33.200,0.032,223.16
33.217,0.002,223.45
33.233,-0.140,223.74
33.250,-0.298,224.03
33.267,-0.416,224.32
33.283,-0.387,224.61
33.300,-0.194,224.90
33.317,0.034,225.19
33.333,0.200,225.48
33.350,0.126,225.78
33.367,-0.127,226.07
33.383,-0.311,226.36
33.400,-0.394,226.65
33.417,0.073,226.94
33.433,0.061,227.23
33.450,-0.429,227.52
33.467,-0.026,227.82
33.483,1.378,228.11
33.500,2.809,228.40
33.517,3.183,228.69
33.533,2.222,228.98
33.550,0.551,229.27
33.567,-0.561,229.57
33.583,-0.287,229.86
33.600,0.013,230.15
33.617,-0.172,230.44
33.633,-0.233,230.74
33.650,-0.192,231.03
33.667,-0.081,231.32
33.683,0.015,231.61
33.700,-0.018,231.90
33.717,-0.160,232.20
33.733,-0.302,232.49
33.750,-0.361,232.78
33.767,-0.344,233.08
33.783,-0.306,233.37
33.800,-0.247,233.66
33.817,-0.161,233.95
33.833,-0.104,234.25
33.850,-0.164,234.54
33.867,-0.279,234.83
33.883,-0.361,235.13
33.900,-0.401,235.42
33.917,-0.417,235.71
33.933,-0.458,236.00
33.950,-0.448,236.30
33.967,-0.303,236.59
33.983,-0.105,236.88
34.000,0.019,237.18
34.017,0.022,237.47
34.033,-0.081,237.76
34.050,-0.222,238.06
34.067,-0.216,238.35
34.083,-0.246,238.65
34.100,-0.389,238.94
34.117,-0.279,239.23
34.133,-0.016,239.53
34.150,0.128,239.82
34.167,0.122,240.11
34.183,0.013,240.41
34.200,-0.160,240.70
34.217,-0.227,241.00
34.233,-0.045,241.29
34.250,0.053,241.58
34.267,-0.088,241.88
34.283,-0.198,242.17
34.300,-0.315,242.47
34.317,-0.378,242.76
34.333,-0.276,243.06
34.350,-0.134,243.35
34.367,-0.125,243.64
34.383,-0.266,243.94
34.400,-0.378,244.23
34.417,-0.392,244.53
34.433,-0.391,244.82
34.450,-0.381,245.12
34.467,-0.412,245.41
34.483,-0.417,245.71
34.500,-0.347,246.00
34.517,-0.303,246.30
34.533,-0.319,246.59
34.550,-0.423,246.89
34.567,-0.517,247.18
34.583,-0.477,247.48
34.600,-0.364,247.77
34.617,-0.293,248.07
34.633,-0.325,248.36
34.650,-0.235,248.66
34.667,-0.048,248.95
34.683,0.071,249.25
34.700,0.059,249.54
34.717,-0.068,249.84
34.733,-0.220,250.13
34.750,-0.274,250.43
34.767,-0.147,250.72
34.783,-0.058,251.02
34.800,-0.064,251.31
34.817,-0.042,251.61
34.833,-0.041,251.91
34.850,-0.080,252.20
34.867,-0.140,252.50
34.883,-0.159,252.79
34.900,-0.234,253.09
34.917,-0.318,253.38
34.933,-0.337,253.68
34.950,-0.367,253.98
34.967,-0.308,254.27
34.983,-0.233,254.57
35.000,-0.234,254.86
35.017,-0.275,255.16
35.033,-0.358,255.46
35.050,-0.352,255.75
35.067,-0.280,256.05
35.083,-0.066,256.34
35.100,0.128,256.64
35.117,0.122,256.94
35.133,-0.012,257.23
35.150,-0.160,257.53
35.167,-0.217,257.83
35.183,-0.202,258.12
35.200,-0.254,258.42
35.217,-0.312,258.72
35.233,-0.366,259.01
35.250,-0.330,259.31
35.267,-0.244,259.61
35.283,-0.321,259.90
35.300,-0.118,260.20
35.317,0.453,260.50
35.333,1.030,260.79
35.350,1.128,261.09
35.367,0.671,261.39
35.383,-0.052,261.68
35.400,-0.466,261.98
35.417,-0.436,262.28
35.433,-0.266,262.57
35.450,-0.335,262.87
35.467,-0.403,263.17
35.483,-0.454,263.46
35.500,-0.448,263.76
35.517,-0.385,264.06
35.533,-0.384,264.36
35.550,-0.529,264.65
35.567,-0.540,264.95
35.583,-0.500,265.25
35.600,-0.437,265.54
35.617,-0.310,265.84
35.633,-0.266,266.14
35.650,-0.301,266.44
35.667,-0.348,266.73
35.683,-0.341,267.03
35.700,-0.313,267.33
35.717,-0.414,267.63
35.733,-0.460,267.92
35.750,-0.446,268.22
35.767,-0.309,268.52
35.783,0.041,268.82
35.800,0.288,269.11
35.817,0.389,269.41
35.833,0.303,269.71
35.850,0.161,270.01
35.867,0.026,270.30
35.883,-0.140,270.60
35.900,-0.166,270.90
35.917,-0.177,271.20
35.933,-0.268,271.50
35.950,-0.254,271.79
35.967,-0.257,272.09
35.983,-0.486,272.39
36.000,-0.486,272.69
36.017,-0.289,272.99
36.033,-0.105,273.28
36.050,0.024,273.58
36.067,0.051,273.88
36.083,-0.106,274.18
36.100,-0.325,274.48
36.117,-0.365,274.77
36.133,-0.379,275.07
36.150,-0.546,275.37
36.167,-0.485,275.67
36.183,-0.526,275.97
36.200,-0.494,276.27
36.217,-0.287,276.56
36.233,-0.063,276.86
36.250,-0.010,277.16
36.267,-0.064,277.46
36.283,-0.234,277.76
36.300,-0.420,278.06
36.317,-0.379,278.35
36.333,-0.189,278.65
36.350,0.095,278.95
36.367,0.102,279.25
36.383,0.333,279.55
36.400,1.014,279.85
36.417,1.772,280.14
36.433,2.169,280.44
36.450,1.996,280.74
36.467,1.273,281.04
36.483,0.648,281.34
36.500,0.536,281.64
36.517,0.817,281.94
36.533,0.738,282.24
36.550,0.582,282.53
36.567,0.414,282.83
36.583,0.228,283.13
36.600,-0.024,283.43
36.617,-0.280,283.73
36.633,-0.512,284.03
36.650,-0.595,284.33
36.667,-0.486,284.63
36.683,-0.035,284.92
36.700,0.369,285.22
36.717,0.548,285.52
36.733,0.468,285.82
36.750,0.082,286.12
36.767,-0.276,286.42
36.783,-0.383,286.72
36.800,-0.345,287.02
36.817,-0.559,287.32
36.833,-0.356,287.62
36.850,0.243,287.92
36.867,0.671,288.21
36.883,0.765,288.51
36.900,0.414,288.81
36.917,-0.308,289.11
36.933,-0.723,289.41
36.950,-0.690,289.71
36.967,-0.625,290.01
36.983,-0.544,290.31
37.000,-0.062,290.61
37.017,0.362,290.91
37.033,0.569,291.21
37.050,0.451,291.51
37.067,0.356,291.81
37.083,0.381,292.10
37.100,0.491,292.40
37.117,0.363,292.70
37.133,-0.035,293.00
37.150,-0.281,293.30
37.167,-0.321,293.60
37.183,-0.292,293.90
37.200,-0.210,294.20
37.217,-0.263,294.50
37.233,-0.241,294.80
37.250,-0.140,295.10
37.267,-0.043,295.40
37.283,-0.140,295.70
37.300,-0.204,296.00
37.317,-0.117,296.30
37.333,0.095,296.60
37.350,0.311,296.90
37.367,0.503,297.20
37.383,0.610,297.50
37.400,0.712,297.80
37.417,0.969,298.09
37.433,1.462,298.39
37.450,1.862,298.69
37.467,2.065,298.99
37.483,2.142,299.29
37.500,2.101,299.59
37.517,1.907,299.89
37.533,1.596,300.19
37.550,1.383,300.49
37.567,1.214,300.79
37.583,1.111,301.09
37.600,1.227,301.39
37.617,1.075,301.69
37.633,0.756,301.99
37.650,0.724,302.29
37.667,0.932,302.59
37.683,0.990,302.89
37.700,0.825,303.19
37.717,0.533,303.49
37.733,0.244,303.79
37.750,0.067,304.09
37.767,0.073,304.39
37.783,-0.128,304.69
37.800,-0.268,304.99
37.817,-0.274,305.29
37.833,-0.220,305.59
37.850,-0.140,305.89
37.867,-0.088,306.19
37.883,-0.056,306.49
37.900,-0.055,306.79
37.917,-0.124,307.09
37.933,-0.251,307.39
37.950,-0.281,307.69
37.967,-0.184,307.99
37.983,-0.215,308.29
38.000,-0.283,308.59
38.017,-0.296,308.89
38.033,-0.317,309.19
38.050,-0.268,309.49
38.067,-0.262,309.79
38.083,-0.228,310.09
38.100,-0.287,310.39
38.117,-0.320,310.69
38.133,-0.359,310.99
38.150,-0.431,311.29
38.167,-0.473,311.59
38.183,-0.470,311.89
38.200,-0.463,312.19
38.217,-0.513,312.49
38.233,-0.454,312.79
38.250,-0.293,313.09
38.267,-0.298,313.39
38.283,-0.307,313.69
38.300,-0.340,313.99
38.317,-0.469,314.29
38.333,-0.538,314.59
38.350,-0.433,314.89
38.367,-0.353,315.19
38.383,-0.353,315.49
38.400,-0.396,315.79
38.417,-0.509,316.09
38.433,-0.641,316.39
38.450,-0.594,316.69
38.467,-0.440,316.99
38.483,-0.476,317.29
38.500,-0.563,317.59
38.517,-0.589,317.89
38.533,-0.553,318.19
38.550,-0.451,318.49
38.567,-0.451,318.79
38.583,-0.547,319.09
38.600,-0.703,319.39
38.617,-0.696,319.69
38.633,-0.575,319.99
38.650,-0.454,320.29
38.667,-0.348,320.60
38.683,-0.355,320.90
38.700,-0.432,321.20
38.717,-0.494,321.50
38.733,-0.538,321.80
38.750,-0.521,322.10
38.767,-0.513,322.40
38.783,-0.462,322.70
38.800,-0.460,323.00
38.817,-0.445,323.30
38.833,-0.369,323.60
38.850,-0.284,323.90
38.867,-0.218,324.20
38.883,-0.265,324.50
38.900,-0.373,324.80
38.917,-0.486,325.10
38.933,-0.421,325.40
38.950,-0.220,325.70
38.967,-0.027,326.00
38.983,0.205,326.30
39.000,0.626,326.60
39.017,1.446,326.90
39.033,2.535,327.20
39.050,3.356,327.50
39.067,3.478,327.80
39.083,2.834,328.10
39.100,1.879,328.40
39.117,1.001,328.70
39.133,0.438,329.00
39.150,0.188,329.30
39.167,0.001,329.60
39.183,-0.245,329.90
39.200,-0.205,330.20
39.217,0.264,330.50
39.233,0.780,330.80
39.250,0.954,331.10
39.267,0.638,331.40
39.283,0.045,331.70
39.300,-0.460,332.00
39.317,-0.553,332.30
39.333,-0.443,332.60
39.350,-0.390,332.91
39.367,-0.298,333.21
39.383,-0.188,333.51
39.400,-0.208,333.81
39.417,-0.332,334.11
39.433,-0.497,334.41
39.450,-0.606,334.71
39.467,-0.559,335.01
39.483,-0.420,335.31
39.500,-0.385,335.61
39.517,-0.368,335.91
39.533,-0.370,336.21
39.550,-0.371,336.51
39.567,-0.350,336.81
39.583,-0.346,337.11
39.600,-0.393,337.41
39.617,-0.475,337.71
39.633,-0.602,338.01
39.650,-0.570,338.31
39.667,-0.329,338.61
39.683,-0.051,338.91
39.700,0.088,339.21
39.717,0.107,339.51
39.733,0.012,339.81
39.750,-0.121,340.11
39.767,-0.123,340.41
39.783,-0.112,340.71
39.800,-0.235,341.01
39.817,-0.325,341.31
39.833,-0.329,341.61
39.850,-0.347,341.91
39.867,-0.366,342.21
39.883,-0.307,342.51
39.900,-0.254,342.81
39.917,-0.268,343.11
39.933,-0.291,343.41
39.950,-0.358,343.71
39.967,-0.423,344.01
39.983,-0.397,344.31
40.000,-0.301,344.61
40.017,-0.234,344.91
40.033,-0.260,345.21
40.050,-0.338,345.51
40.067,-0.412,345.81
40.083,-0.429,346.11
40.100,-0.381,346.41
40.117,-0.340,346.71
40.133,-0.358,347.01
40.150,-0.400,347.31
40.167,-0.396,347.61
40.183,-0.311,347.91
40.200,-0.214,348.21
40.217,-0.194,348.51
40.233,-0.232,348.81
40.250,-0.297,349.11
40.267,-0.331,349.41
40.283,-0.237,349.71
40.300,-0.104,350.01
40.317,-0.052,350.31
40.333,-0.086,350.61
40.350,-0.175,350.91
40.367,-0.232,351.21
40.383,-0.257,351.51
40.400,-0.300,351.81
40.417,-0.318,352.11
40.433,-0.368,352.41
40.450,-0.355,352.71
40.467,-0.039,353.01
40.483,0.667,353.31
40.500,1.582,353.61
40.517,2.079,353.91
40.533,1.856,354.21
40.550,1.010,354.51
40.567,0.015,354.81
40.583,-0.475,355.11
40.600,-0.424,355.41
40.617,-0.190,355.71
40.633,0.011,356.01
40.650,0.091,356.31
40.667,0.156,356.60
40.683,0.097,356.90
40.700,0.000,357.20
40.717,-0.109,357.50
40.733,-0.259,357.80
40.750,-0.336,358.10
40.767,-0.312,358.40
40.783,-0.273,358.70
40.800,-0.221,359.00
40.817,-0.208,359.30
40.833,-0.278,359.60
40.850,-0.329,359.90
40.867,-0.301,360.20
40.883,-0.260,360.50
40.900,-0.237,360.80
40.917,-0.141,361.10
40.933,0.004,361.40
40.950,0.141,361.70
40.967,0.238,362.00
40.983,0.189,362.30
41.000,-0.008,362.60
41.017,-0.077,362.89
41.033,0.029,363.19
41.050,0.130,363.49
41.067,0.091,363.79
41.083,0.037,364.09
41.100,-0.026,364.39
41.117,-0.160,364.69
41.133,0.214,364.99
41.150,1.134,365.29
41.167,1.911,365.59
41.183,2.021,365.89
41.200,1.436,366.19
41.217,0.556,366.49
41.233,-0.101,366.79
41.250,-0.192,367.08
41.267,0.009,367.38
41.283,-0.002,367.68
41.300,0.035,367.98
41.317,0.066,368.28
41.333,0.088,368.58
41.350,0.084,368.88
41.367,0.076,369.18
41.383,0.138,369.48
41.400,0.196,369.78
41.417,0.166,370.08
41.433,0.126,370.37
41.450,0.149,370.67
41.467,0.137,370.97
41.483,0.030,371.27
41.500,0.037,371.57
41.517,0.072,371.87
41.533,-0.013,372.17
41.550,-0.111,372.47
41.567,-0.220,372.77
41.583,-0.275,373.07
41.600,-0.196,373.36
41.617,-0.085,373.66
41.633,-0.065,373.96
41.650,-0.227,374.26
41.667,-0.278,374.56
41.683,-0.302,374.86
41.700,-0.285,375.16
41.717,-0.203,375.46
