VERSION=1.3
ExportFileName=PM bnext 16_2025-05-14_13-24-16_labchip_PURE_Data_E2
SampleLabel=E2
SampleName=PM bnext 16
SampleComment=
SampleAreaConcRatio=0.010385
SampleLowerMarkerTime=12.25
SampleUpperMarkerTime=-1.00
SamplePeakTimes=12.25,15.15,15.52,16.30,17.33,17.65,17.88,18.15,18.28,18.42,18.52,18.73,18.88,19.02,19.33,19.73,20.05,20.67,20.98,21.37,21.60,21.82,22.25,22.65,22.90,23.18,23.60,23.80,24.67,25.43,26.02,26.27,27.12,39.15
SamplePeakSizes=1.219,7.182,8.487,11.762,17.145,19.044,20.519,22.283,23.196,24.131,24.846,26.434,27.566,28.594,31.120,34.475,37.260,43.007,46.120,50.033,52.490,54.822,59.628,64.229,67.182,70.600,75.759,78.290,89.648,100.194,108.508,112.143,124.806,332.107
SamplePeakQuantities=,,,1.1487,8.9231,1.6831,4.0127,6.3956,52.5185,46.0286,56.5008,12.3537,3.1225,8.9516,5.5724,25.2505,172.9168,191.9419,311.5413,60.8108,28.8680,10.0512,146.8672,21.5692,66.5377,22.2739,5.1599,36.5490,5.7587,74.4006,27.2505,13.3945,8.8453,2.4052
PlateFileName=2025-05-14_13-24-16_labchip_PURE
PlateAssayName=HT Protein Express 200
PlateBarCode=N/A
WellAquisitionTime=5/14/2025 1:47:09 PM 
PlateDataFrequency=60
PlateDataStartTime=11.00
PlateDataEndTime=42.00
PlateConcUnits=ng/ul
PlateSizeUnits=kDa
PlateLadderSizes=1.40,15.90,20.40,28.90,48.40,68.40,119.20
ChipID=H296P-0563N-03
Operator=ACJS
DATA
Time,Value,Size
0.000,41.643,0.00
0.017,41.661,0.00
0.033,41.514,0.00
0.050,41.342,0.00
0.067,41.213,0.00
0.083,41.286,0.00
0.100,41.345,0.00
0.117,41.377,0.00
0.133,41.310,0.00
0.150,41.193,0.00
0.167,41.040,0.00
0.183,40.961,0.00
0.200,40.951,0.00
0.217,40.898,0.00
0.233,40.811,0.00
0.250,40.871,0.00
0.267,40.890,0.00
0.283,40.813,0.00
0.300,40.624,0.00
0.317,40.426,0.00
0.333,40.211,0.00
0.350,40.043,0.00
0.367,39.841,0.00
0.383,39.555,0.00
0.400,39.142,0.00
0.417,38.752,0.00
0.433,38.315,0.00
0.450,37.720,0.00
0.467,37.004,0.00
0.483,36.292,0.00
0.500,35.619,0.00
0.517,34.953,0.00
0.533,34.242,0.00
0.550,33.440,0.00
0.567,32.589,0.00
0.583,31.824,0.00
0.600,31.069,0.00
0.617,30.350,0.00
0.633,29.625,0.00
0.650,28.905,0.00
0.667,28.202,0.00
0.683,27.486,0.00
0.700,26.819,0.00
0.717,26.212,0.00
0.733,25.663,0.00
0.750,25.204,0.00
0.767,24.766,0.00
0.783,24.338,0.00
0.800,23.861,0.00
0.817,23.346,0.00
0.833,22.837,0.00
0.850,22.374,0.00
0.867,21.994,0.00
0.883,21.596,0.00
0.900,21.110,0.00
0.917,20.647,0.00
0.933,20.214,0.00
0.950,19.859,0.00
0.967,19.612,0.00
0.983,19.336,0.00
1.000,19.050,0.00
1.017,18.748,0.00
1.033,18.398,0.00
1.050,18.040,0.00
1.067,17.733,0.00
1.083,17.525,0.00
1.100,17.305,0.00
1.117,17.073,0.00
1.133,16.864,0.00
1.150,16.648,0.00
1.167,16.425,0.00
1.183,16.179,0.00
1.200,15.918,0.00
1.217,15.736,0.00
1.233,15.604,0.00
1.250,15.455,0.00
1.267,15.247,0.00
1.283,14.969,0.00
1.300,14.747,0.00
1.317,14.641,0.00
1.333,14.532,0.00
1.350,14.402,0.00
1.367,14.220,0.00
1.383,14.042,0.00
1.400,13.862,0.00
1.417,13.681,0.00
1.433,13.520,0.00
1.450,13.347,0.00
1.467,13.195,0.00
1.483,13.079,0.00
1.500,12.943,0.00
1.517,12.815,0.00
1.533,12.694,0.00
1.550,12.590,0.00
1.567,12.467,0.00
1.583,12.287,0.00
1.600,12.059,0.00
1.617,11.872,0.00
1.633,11.772,0.00
1.650,11.726,0.00
1.667,11.667,0.00
1.683,11.537,0.00
1.700,11.372,0.00
1.717,11.230,0.00
1.733,11.128,0.00
1.750,11.047,0.00
1.767,10.967,0.00
1.783,10.884,0.00
1.800,10.796,0.00
1.817,10.686,0.00
1.833,10.587,0.00
1.850,10.461,0.00
1.867,10.307,0.00
1.883,10.179,0.00
1.900,10.088,0.00
1.917,10.005,0.00
1.933,9.925,0.00
1.950,9.841,0.00
1.967,9.746,0.00
1.983,9.634,0.00
2.000,9.529,0.00
2.017,9.404,0.00
2.033,9.241,0.00
2.050,9.134,0.00
2.067,9.099,0.00
2.083,9.060,0.00
2.100,9.013,0.00
2.117,8.978,0.00
2.133,8.903,0.00
2.150,8.816,0.00
2.167,8.761,0.00
2.183,8.733,0.00
2.200,8.687,0.00
2.217,8.638,0.00
2.233,8.600,0.00
2.250,8.545,0.00
2.267,8.518,0.00
2.283,8.486,0.00
2.300,8.400,0.00
2.317,8.264,0.00
2.333,8.138,0.00
2.350,8.080,0.00
2.367,8.055,0.00
2.383,7.967,0.00
2.400,7.855,0.00
2.417,7.757,0.00
2.433,7.716,0.00
2.450,7.681,0.00
2.467,7.654,0.00
2.483,7.587,0.00
2.500,7.488,0.00
2.517,7.411,0.00
2.533,7.397,0.00
2.550,7.340,0.00
2.567,7.245,0.00
2.583,7.174,0.00
2.600,7.093,0.00
2.617,6.966,0.00
2.633,6.876,0.00
2.650,6.838,0.00
2.667,6.796,0.00
2.683,6.765,0.00
2.700,6.731,0.00
2.717,6.616,0.00
2.733,6.499,0.00
2.750,6.420,0.00
2.767,6.345,0.00
2.783,6.306,0.00
2.800,6.288,0.00
2.817,6.267,0.00
2.833,6.200,0.00
2.850,6.108,0.00
2.867,5.966,0.00
2.883,5.854,0.00
2.900,5.838,0.00
2.917,5.793,0.00
2.933,5.731,0.00
2.950,5.640,0.00
2.967,5.472,0.00
2.983,5.341,0.00
3.000,5.262,0.00
3.017,5.213,0.00
3.033,5.147,0.00
3.050,5.069,0.00
3.067,5.049,0.00
3.083,5.031,0.00
3.100,5.017,0.00
3.117,5.005,0.00
3.133,4.951,0.00
3.150,4.923,0.00
3.167,4.885,0.00
3.183,4.838,0.00
3.200,4.790,0.00
3.217,4.738,0.00
3.233,4.731,0.00
3.250,4.674,0.00
3.267,4.632,0.00
3.283,4.615,0.00
3.300,4.590,0.00
3.317,4.567,0.00
3.333,4.469,0.00
3.350,4.333,0.00
3.367,4.313,0.00
3.383,4.365,0.00
3.400,4.279,0.00
3.417,3.897,0.00
3.433,3.273,0.00
3.450,2.556,0.00
3.467,1.895,0.00
3.483,1.368,0.00
3.500,0.928,0.00
3.517,0.578,0.00
3.533,0.271,0.00
3.550,0.084,0.00
3.567,-0.112,0.00
3.583,-0.356,0.00
3.600,-0.568,0.00
3.617,-0.647,0.00
3.633,-0.756,0.00
3.650,-0.862,0.00
3.667,-0.898,0.00
3.683,-0.917,0.00
3.700,-1.011,0.00
3.717,-1.014,0.00
3.733,-0.998,0.00
3.750,-0.992,0.00
3.767,-0.960,0.00
3.783,-0.955,0.00
3.800,-1.026,0.00
3.817,-1.078,0.00
3.833,-1.068,0.00
3.850,-1.075,0.00
3.867,-1.111,0.00
3.883,-1.184,0.00
3.900,-1.212,0.00
3.917,-1.202,0.00
3.933,-1.198,0.00
3.950,-1.225,0.00
3.967,-1.206,0.00
3.983,-1.210,0.00
4.000,-1.248,0.00
4.017,-1.324,0.00
4.033,-1.381,0.00
4.050,-1.455,0.00
4.067,-1.513,0.00
4.083,-1.555,0.00
4.100,-1.544,0.00
4.117,-1.490,0.00
4.133,-1.421,0.00
4.150,-1.394,0.00
4.167,-1.482,0.00
4.183,-1.617,0.00
4.200,-1.666,0.00
4.217,-1.650,0.00
4.233,-1.633,0.00
4.250,-1.621,0.00
4.267,-1.619,0.00
4.283,-1.686,0.00
4.300,-1.752,0.00
4.317,-1.757,0.00
4.333,-1.759,0.00
4.350,-1.731,0.00
4.367,-1.696,0.00
4.383,-1.681,0.00
4.400,-1.711,0.00
4.417,-1.675,0.00
4.433,-1.640,0.00
4.450,-1.666,0.00
4.467,-1.678,0.00
4.483,-1.679,0.00
4.500,-1.685,0.00
4.517,-1.665,0.00
4.533,-1.625,0.00
4.550,-1.630,0.00
4.567,-1.698,0.00
4.583,-1.731,0.00
4.600,-1.769,0.00
4.617,-1.767,0.00
4.633,-1.730,0.00
4.650,-1.715,0.00
4.667,-1.759,0.00
4.683,-1.835,0.00
4.700,-1.878,0.00
4.717,-1.870,0.00
4.733,-1.837,0.00
4.750,-1.753,0.00
4.767,-1.679,0.00
4.783,-1.578,0.00
4.800,-1.507,0.00
4.817,-1.418,0.00
4.833,-1.286,0.00
4.850,-1.116,0.00
4.867,-0.936,0.00
4.883,-0.749,0.00
4.900,-0.627,0.00
4.917,-0.474,0.00
4.933,-0.261,0.00
4.950,0.015,0.00
4.967,0.292,0.00
4.983,0.491,0.00
5.000,0.663,0.00
5.017,0.834,0.00
5.033,1.056,0.00
5.050,1.351,0.00
5.067,1.645,0.00
5.083,1.897,0.00
5.100,2.078,0.00
5.117,2.211,0.00
5.133,2.449,0.00
5.150,2.727,0.00
5.167,2.999,0.00
5.183,3.213,0.00
5.200,3.354,0.00
5.217,3.473,0.00
5.233,3.658,0.00
5.250,3.889,0.00
5.267,4.064,0.00
5.283,4.147,0.00
5.300,4.266,0.00
5.317,4.382,0.00
5.333,4.469,0.00
5.350,4.556,0.00
5.367,4.594,0.00
5.383,4.603,0.00
5.400,4.648,0.00
5.417,4.759,0.00
5.433,4.832,0.00
5.450,4.922,0.00
5.467,5.080,0.00
5.483,5.034,0.00
5.500,4.545,0.00
5.517,3.710,0.00
5.533,2.771,0.00
5.550,1.964,0.00
5.567,1.489,0.00
5.583,1.358,0.00
5.600,1.298,0.00
5.617,1.206,0.00
5.633,1.163,0.00
5.650,1.140,0.00
5.667,1.130,0.00
5.683,1.189,0.00
5.700,1.266,0.00
5.717,1.281,0.00
5.733,1.281,0.00
5.750,1.342,0.00
5.767,1.398,0.00
5.783,1.396,0.00
5.800,1.407,0.00
5.817,1.430,0.00
5.833,1.417,0.00
5.850,1.345,0.00
5.867,1.201,0.00
5.883,1.046,0.00
5.900,0.992,0.00
5.917,1.032,0.00
5.933,1.041,0.00
5.950,0.959,0.00
5.967,0.841,0.00
5.983,0.775,0.00
6.000,0.796,0.00
6.017,0.827,0.00
6.033,0.812,0.00
6.050,0.747,0.00
6.067,0.681,0.00
6.083,0.681,0.00
6.100,0.727,0.00
6.117,0.733,0.00
6.133,0.648,0.00
6.150,0.550,0.00
6.167,0.451,0.00
6.183,0.364,0.00
6.200,0.340,0.00
6.217,0.316,0.00
6.233,0.207,0.00
6.250,0.064,0.00
6.267,-0.076,0.00
6.283,-0.177,0.00
6.300,-0.243,0.00
6.317,-0.280,0.00
6.333,-0.309,0.00
6.350,-0.354,0.00
6.367,-0.383,0.00
6.383,-0.402,0.00
6.400,-0.437,0.00
6.417,-0.486,0.00
6.433,-0.569,0.00
6.450,-0.647,0.00
6.467,-0.779,0.00
6.483,-0.957,0.00
6.500,-1.108,0.00
6.517,-1.277,0.00
6.533,-1.401,0.00
6.550,-1.431,0.00
6.567,-1.442,0.00
6.583,-1.621,0.00
6.600,-3.780,0.00
6.617,-1.660,0.00
6.633,13.134,0.00
6.650,4.833,0.00
6.667,-32.595,0.00
6.683,11.041,0.00
6.700,250.852,0.00
6.717,744.789,0.00
6.733,1578.543,0.00
6.750,2522.749,0.00
6.767,3243.155,0.00
6.783,3564.704,0.00
6.800,3554.271,0.00
6.817,3391.621,0.00
6.833,3270.186,0.00
6.850,3284.602,0.00
6.867,3333.142,0.00
6.883,3311.183,0.00
6.900,3315.516,0.00
6.917,3315.785,0.00
6.933,3315.112,0.00
6.950,3314.390,0.00
6.967,3315.743,0.00
6.983,3317.812,0.00
7.000,3319.996,0.00
7.017,3321.488,0.00
7.033,3321.618,0.00
7.050,3321.495,0.00
7.067,3321.017,0.00
7.083,3321.232,0.00
7.100,3321.807,0.00
7.117,3322.207,0.00
7.133,3322.973,0.00
7.150,3322.658,0.00
7.167,3322.372,0.00
7.183,3322.126,0.00
7.200,3322.035,0.00
7.217,3322.733,0.00
7.233,3322.885,0.00
7.250,3324.018,0.00
7.267,3324.105,0.00
7.283,3323.954,0.00
7.300,3324.114,0.00
7.317,3324.437,0.00
7.333,3325.111,0.00
7.350,3325.489,0.00
7.367,3325.485,0.00
7.383,3325.468,0.00
7.400,3324.881,0.00
7.417,3323.902,0.00
7.433,3321.604,0.00
7.450,3318.401,0.00
7.467,3312.893,0.00
7.483,3305.588,0.00
7.500,3298.349,0.00
7.517,3291.716,0.00
7.533,3285.917,0.00
7.550,3280.201,0.00
7.567,3273.306,0.00
7.583,3264.883,0.00
7.600,3257.741,0.00
7.617,3250.915,0.00
7.633,3243.644,0.00
7.650,3236.815,0.00
7.667,3229.288,0.00
7.683,3221.767,0.00
7.700,3214.675,0.00
7.717,3208.564,0.00
7.733,3203.038,0.00
7.750,3197.025,0.00
7.767,3191.001,0.00
7.783,3184.485,0.00
7.800,3179.155,0.00
7.817,3175.122,0.00
7.833,3169.940,0.00
7.850,3164.642,0.00
7.867,3157.693,0.00
7.883,3150.737,0.00
7.900,3144.640,0.00
7.917,3138.173,0.00
7.933,3131.957,0.00
7.950,3125.848,0.00
7.967,3118.989,0.00
7.983,3111.877,0.00
8.000,3105.169,0.00
8.017,3099.771,0.00
8.033,3093.671,0.00
8.050,3086.812,0.00
8.067,3080.676,0.00
8.083,3074.965,0.00
8.100,3069.154,0.00
8.117,3062.518,0.00
8.133,3054.935,0.00
8.150,3047.201,0.00
8.167,3039.620,0.00
8.183,3032.890,0.00
8.200,3026.521,0.00
8.217,3019.980,0.00
8.233,3013.805,0.00
8.250,3007.604,0.00
8.267,3001.188,0.00
8.283,2994.488,0.00
8.300,2990.749,0.00
8.317,2986.858,0.00
8.333,2982.297,0.00
8.350,2976.314,0.00
8.367,2970.651,0.00
8.383,2964.447,0.00
8.400,2957.825,0.00
8.417,2952.358,0.00
8.433,2947.190,0.00
8.450,2941.983,0.00
8.467,2938.630,0.00
8.483,2933.737,0.00
8.500,2929.654,0.00
8.517,2925.956,0.00
8.533,2923.332,0.00
8.550,2919.465,0.00
8.567,2914.946,0.00
8.583,2911.860,0.00
8.600,2909.648,0.00
8.617,2908.247,0.00
8.633,2907.639,0.00
8.650,2906.122,0.00
8.667,2904.798,0.00
8.683,2903.895,0.00
8.700,2902.988,0.00
8.717,2901.688,0.00
8.733,2900.168,0.00
8.750,2899.275,0.00
8.767,2898.292,0.00
8.783,2896.401,0.00
8.800,2894.140,0.00
8.817,2891.378,0.00
8.833,2889.019,0.00
8.850,2887.255,0.00
8.867,2885.352,0.00
8.883,2882.159,0.00
8.900,2877.489,0.00
8.917,2872.733,0.00
8.933,2868.687,0.00
8.950,2864.912,0.00
8.967,2860.955,0.00
8.983,2856.225,0.00
9.000,2851.246,0.00
9.017,2846.482,0.00
9.033,2842.867,0.00
9.050,2839.833,0.00
9.067,2836.502,0.00
9.083,2832.980,0.00
9.100,2828.704,0.00
9.117,2824.595,0.00
9.133,2821.316,0.00
9.150,2818.697,0.00
9.167,2815.669,0.00
9.183,2811.621,0.00
9.200,2805.732,0.00
9.217,2805.093,0.00
9.233,2801.530,0.00
9.250,2791.121,0.00
9.267,2785.730,0.00
9.283,2797.794,0.00
9.300,2848.204,0.00
9.317,2938.607,0.00
9.333,3038.709,0.00
9.350,3111.733,0.00
9.367,3141.135,0.00
9.383,3141.201,0.00
9.400,3127.215,0.00
9.417,3114.721,0.00
9.433,3109.694,0.00
9.450,3101.198,0.00
9.467,3092.235,0.00
9.483,3084.268,0.00
9.500,3075.295,0.00
9.517,3066.050,0.00
9.533,3056.914,0.00
9.550,3048.030,0.00
9.567,3039.543,0.00
9.583,3032.661,0.00
9.600,3025.269,0.00
9.617,3014.999,0.00
9.633,3006.021,0.00
9.650,3001.370,0.00
9.667,3008.092,0.00
9.683,3028.849,0.00
9.700,3051.461,0.00
9.717,3067.318,0.00
9.733,3067.649,0.00
9.750,3053.703,0.00
9.767,3043.423,0.00
9.783,3054.055,0.00
9.800,3102.971,0.00
9.817,3190.463,0.00
9.833,3290.747,0.00
9.850,3371.847,0.00
9.867,3387.872,0.00
9.883,3379.146,0.00
9.900,3401.945,0.00
9.917,3414.406,0.00
9.933,3334.867,0.00
9.950,3046.822,0.00
9.967,2540.364,0.00
9.983,1952.171,0.00
10.000,1430.135,0.00
10.017,1041.579,0.00
10.033,742.398,0.00
10.050,504.385,0.00
10.067,326.907,0.00
10.083,199.411,0.00
10.100,131.441,0.00
10.117,85.891,0.00
10.133,40.387,0.00
10.150,10.927,0.00
10.167,-4.253,0.00
10.183,-8.049,0.00
10.200,-7.390,0.00
10.217,-6.342,0.00
10.233,-4.988,0.00
10.250,-3.691,0.00
10.267,-3.074,0.00
10.283,-2.835,0.00
10.300,-2.567,0.00
10.317,-2.266,0.00
10.333,-2.118,0.00
10.350,-2.018,0.00
10.367,-1.875,0.00
10.383,-1.641,0.00
10.400,-1.288,0.00
10.417,-0.929,0.00
10.433,-0.511,0.00
10.450,-0.068,0.00
10.467,0.085,0.00
10.483,-0.136,0.00
10.500,-0.321,0.00
10.517,-0.854,0.00
10.533,-2.334,0.00
10.550,-2.134,0.00
10.567,1.563,0.00
10.583,6.187,0.00
10.600,8.374,0.00
10.617,6.657,0.00
10.633,2.196,0.00
10.650,-1.719,0.00
10.667,-2.440,0.00
10.683,-1.038,0.00
10.700,-0.586,0.00
10.717,-0.808,0.00
10.733,-0.779,0.00
10.750,-0.955,0.00
10.767,-1.198,0.00
10.783,-1.228,0.00
10.800,-1.030,0.00
10.817,-0.801,0.00
10.833,-0.694,0.00
10.850,-0.631,0.00
10.867,-0.554,0.00
10.883,-0.567,0.00
10.900,-0.548,0.00
10.917,-0.468,0.00
10.933,-0.339,0.00
10.950,-0.196,0.00
10.967,0.029,0.00
10.983,0.153,0.00
11.000,0.172,0.00
11.017,0.112,0.00
11.033,0.078,0.00
11.050,0.051,0.00
11.067,0.205,0.00
11.083,0.442,0.00
11.100,0.545,0.00
11.117,0.469,0.00
11.133,0.457,0.00
11.150,0.448,0.00
11.167,0.509,0.00
11.183,0.559,0.00
11.200,0.529,0.00
11.217,0.349,0.00
11.233,0.190,0.00
11.250,0.146,0.00
11.267,0.153,0.00
11.283,0.191,0.00
11.300,0.273,0.00
11.317,0.264,0.00
11.333,0.184,0.00
11.350,0.042,0.00
11.367,-0.130,0.00
11.383,-0.354,0.00
11.400,-0.482,0.00
11.417,-0.419,0.00
11.433,-0.223,0.00
11.450,0.163,0.00
11.467,0.631,0.00
11.483,0.944,0.00
11.500,0.971,0.00
11.517,1.048,0.00
11.533,1.335,0.00
11.550,1.647,0.00
11.567,1.555,0.00
11.583,0.855,0.00
11.600,-0.178,0.00
11.617,-1.046,0.00
11.633,-1.365,0.00
11.650,-1.299,0.00
11.667,-1.273,0.00
11.683,-1.328,0.00
11.700,-1.431,0.00
11.717,-1.392,0.00
11.733,-1.378,0.00
11.750,-1.251,0.00
11.767,-1.019,0.00
11.783,-0.815,0.00
11.800,-0.782,0.00
11.817,-0.673,0.00
11.833,-0.564,0.00
11.850,-0.491,0.00
11.867,-0.513,0.00
11.883,-0.599,0.00
11.900,-0.897,0.00
11.917,-1.042,0.00
11.933,-0.987,0.00
11.950,-0.887,0.00
11.967,-1.062,0.00
11.983,-1.195,0.00
12.000,-1.297,0.00
12.017,-1.238,0.00
12.033,-1.111,0.00
12.050,-0.960,0.00
12.067,-1.016,0.00
12.083,-1.133,0.00
12.100,-1.254,0.00
12.117,-1.354,0.00
12.133,-1.571,0.00
12.150,-1.566,0.00
12.167,0.134,0.00
12.183,6.363,0.00
12.200,6.141,0.00
12.217,-10.157,0.00
12.233,29.489,0.00
12.250,286.979,0.00
12.267,763.964,0.00
12.283,1206.123,0.00
12.300,1315.947,0.00
12.317,1013.089,0.00
12.333,504.975,0.00
12.350,107.079,0.00
12.367,-29.114,0.00
12.383,-8.295,0.00
12.400,9.657,0.00
12.417,3.559,0.00
12.433,-1.472,0.00
12.450,-1.286,0.00
12.467,-0.746,0.00
12.483,-0.767,1.41
12.500,-0.843,1.42
12.517,-0.827,1.44
12.533,-0.703,1.46
12.550,-0.711,1.48
12.567,-0.938,1.50
12.583,-1.204,1.52
12.600,-1.306,1.54
12.617,-1.334,1.56
12.633,-1.359,1.58
12.650,-1.380,1.59
12.667,-1.320,1.61
12.683,-1.205,1.63
12.700,-1.063,1.65
12.717,-0.977,1.67
12.733,-1.069,1.70
12.750,-1.177,1.72
12.767,-1.067,1.74
12.783,-0.943,1.76
12.800,-0.904,1.78
12.817,-0.973,1.80
12.833,-1.062,1.82
12.850,-1.107,1.84
12.867,-1.074,1.87
12.883,-0.858,1.89
12.900,-0.664,1.91
12.917,-0.333,1.93
12.933,0.013,1.96
12.950,0.101,1.98
12.967,-0.020,2.00
12.983,-0.242,2.02
13.000,-0.372,2.05
13.017,-0.496,2.07
13.033,-0.571,2.10
13.050,-0.551,2.12
13.067,-0.550,2.14
13.083,-0.504,2.17
13.100,-0.518,2.19
13.117,-0.545,2.22
13.133,-0.544,2.24
13.150,-0.516,2.27
13.167,-0.394,2.29
13.183,-0.525,2.32
13.200,-0.562,2.34
13.217,-0.517,2.37
13.233,-0.380,2.40
13.250,-0.257,2.42
13.267,-0.205,2.45
13.283,-0.132,2.48
13.300,-0.029,2.50
13.317,0.170,2.53
13.333,0.491,2.56
13.350,0.649,2.59
13.367,0.663,2.61
13.383,0.565,2.64
13.400,0.463,2.67
13.417,0.269,2.70
13.433,0.121,2.73
13.450,0.048,2.76
13.467,0.054,2.79
13.483,0.076,2.82
13.500,0.207,2.85
13.517,0.307,2.88
13.533,0.266,2.91
13.550,0.244,2.94
13.567,0.242,2.97
13.583,0.208,3.00
13.600,0.270,3.03
13.617,0.310,3.06
13.633,0.285,3.09
13.650,0.246,3.12
13.667,0.356,3.15
13.683,0.531,3.19
13.700,0.657,3.22
13.717,0.639,3.25
13.733,0.568,3.28
13.750,0.560,3.32
13.767,0.661,3.35
13.783,0.825,3.38
13.800,0.880,3.42
13.817,0.854,3.45
13.833,0.992,3.48
13.850,1.311,3.52
13.867,1.671,3.55
13.883,2.030,3.59
13.900,2.363,3.62
13.917,2.613,3.66
13.933,2.833,3.69
13.950,3.083,3.73
13.967,3.169,3.77
13.983,3.056,3.80
14.000,2.861,3.84
14.017,2.476,3.88
14.033,1.982,3.91
14.050,1.614,3.95
14.067,1.356,3.99
14.083,1.146,4.03
14.100,1.010,4.06
14.117,0.893,4.10
14.133,0.775,4.14
14.150,0.646,4.18
14.167,0.467,4.22
14.183,0.302,4.26
14.200,0.313,4.30
14.217,0.475,4.34
14.233,0.577,4.38
14.250,0.452,4.42
14.267,0.144,4.46
14.283,-0.202,4.50
14.300,-0.337,4.54
14.317,-0.255,4.58
14.333,-0.185,4.62
14.350,-0.150,4.66
14.367,-0.124,4.71
14.383,-0.172,4.75
14.400,-0.306,4.79
14.417,-0.453,4.83
14.433,-0.545,4.88
14.450,-0.555,4.92
14.467,-0.468,4.96
14.483,-0.404,5.01
14.500,-0.498,5.05
14.517,-0.764,5.09
14.533,-1.016,5.14
14.550,-1.225,5.18
14.567,-1.433,5.23
14.583,-1.441,5.27
14.600,-1.268,5.32
14.617,-0.965,5.37
14.633,-0.607,5.41
14.650,-0.263,5.46
14.667,0.125,5.51
14.683,0.507,5.55
14.700,0.874,5.60
14.717,1.103,5.65
14.733,1.026,5.70
14.750,0.892,5.74
14.767,0.707,5.79
14.783,0.560,5.84
14.800,0.383,5.89
14.817,0.098,5.94
14.833,-0.299,5.99
14.850,-0.751,6.04
14.867,-1.082,6.09
14.883,-1.041,6.14
14.900,-0.539,6.19
14.917,0.520,6.24
14.933,2.032,6.29
14.950,3.775,6.34
14.967,5.383,6.39
14.983,6.575,6.44
15.000,7.252,6.50
15.017,7.548,6.55
15.033,7.602,6.60
15.050,7.510,6.65
15.067,7.261,6.71
15.083,6.941,6.76
15.100,6.920,6.82
15.117,7.365,6.87
15.133,8.197,6.92
15.150,9.414,6.98
15.167,11.073,7.03
15.183,12.893,7.09
15.200,14.194,7.14
15.217,14.252,7.20
15.233,12.707,7.26
15.250,10.126,7.31
15.267,7.888,7.37
15.283,6.789,7.43
15.300,6.637,7.48
15.317,7.006,7.54
15.333,7.696,7.60
15.350,8.663,7.66
15.367,9.858,7.72
15.383,10.946,7.77
15.400,11.572,7.83
15.417,12.314,7.89
15.433,14.629,7.95
15.450,19.641,8.01
15.467,26.762,8.07
15.483,39.719,8.13
15.500,64.862,8.19
15.517,102.283,8.25
15.533,143.103,8.32
15.550,175.209,8.38
15.567,190.574,8.44
15.583,188.567,8.50
15.600,173.557,8.56
15.617,149.911,8.63
15.633,118.613,8.69
15.650,84.008,8.75
15.667,52.892,8.82
15.683,29.226,8.88
15.700,12.930,8.95
15.717,2.568,9.01
15.733,-3.320,9.07
15.750,-6.195,9.14
15.767,-7.490,9.21
15.783,-7.917,9.27
15.800,-7.734,9.34
15.817,-7.175,9.40
15.833,-6.576,9.47
15.850,-6.031,9.54
15.867,-5.510,9.60
15.883,-4.874,9.67
15.900,-4.331,9.74
15.917,-4.118,9.81
15.933,-4.274,9.88
15.950,-4.604,9.95
15.967,-4.649,10.01
15.983,-4.402,10.08
16.000,-4.293,10.15
16.017,-4.312,10.22
16.033,-4.379,10.29
16.050,-4.448,10.36
16.067,-4.348,10.44
16.083,-4.245,10.51
16.100,-4.183,10.58
16.117,-4.091,10.65
16.133,-3.783,10.72
16.150,-3.148,10.79
16.167,-2.372,10.87
16.183,-1.493,10.94
16.200,-1.099,11.01
16.217,-0.838,11.09
16.233,-0.375,11.16
16.250,0.226,11.24
16.267,1.008,11.31
16.283,2.385,11.39
16.300,4.269,11.46
16.317,5.959,11.54
16.333,9.281,11.61
16.350,12.566,11.69
16.367,12.895,11.77
16.383,9.679,11.84
16.400,4.257,11.92
16.417,-0.661,12.00
16.433,-2.880,12.07
16.450,-2.304,12.15
16.467,-1.404,12.23
16.483,-2.321,12.31
16.500,-2.938,12.39
16.517,-3.315,12.47
16.533,-3.056,12.55
16.550,-2.405,12.63
16.567,-1.617,12.71
16.583,-0.884,12.79
16.600,-0.325,12.87
16.617,0.032,12.95
16.633,0.091,13.03
16.650,0.023,13.11
16.667,-0.068,13.20
16.683,-0.184,13.28
16.700,-0.284,13.36
16.717,-0.373,13.44
16.733,-0.208,13.53
16.750,0.569,13.61
16.767,1.966,13.70
16.783,3.712,13.78
16.800,5.340,13.86
16.817,6.889,13.95
16.833,8.096,14.03
16.850,8.337,14.12
16.867,7.317,14.21
16.883,5.148,14.29
16.900,2.729,14.38
16.917,1.131,14.47
16.933,0.641,14.55
16.950,0.708,14.64
16.967,0.884,14.73
16.983,1.089,14.82
17.000,1.453,14.91
17.017,1.843,14.99
17.033,2.139,15.08
17.050,2.132,15.17
17.067,1.885,15.26
17.083,1.603,15.35
17.100,1.385,15.44
17.117,1.249,15.53
17.133,1.229,15.63
17.150,1.385,15.72
17.167,1.589,15.81
17.183,1.829,15.90
17.200,2.021,15.99
17.217,2.192,16.09
17.233,2.386,16.18
17.250,2.701,16.27
17.267,3.084,16.37
17.283,3.729,16.46
17.300,5.147,16.55
17.317,8.617,16.65
17.333,16.295,16.74
17.350,29.630,16.84
17.367,46.070,16.93
17.383,59.546,17.03
17.400,63.798,17.13
17.417,56.860,17.22
17.433,42.802,17.32
17.450,28.203,17.42
17.467,17.718,17.51
17.483,11.753,17.61
17.500,8.680,17.71
17.517,6.878,17.81
17.533,5.644,17.91
17.550,5.098,18.01
17.567,5.135,18.11
17.583,5.431,18.21
17.600,5.818,18.31
17.617,5.903,18.41
17.633,5.600,18.51
17.650,5.385,18.61
17.667,6.157,18.71
17.683,8.111,18.81
17.700,10.600,18.91
17.717,12.271,19.02
17.733,11.897,19.12
17.750,9.515,19.22
17.767,6.443,19.33
17.783,4.152,19.43
17.800,3.398,19.53
17.817,4.004,19.64
17.833,5.470,19.74
17.850,7.288,19.85
17.867,9.524,19.95
17.883,12.079,20.06
17.900,14.679,20.16
17.917,16.986,20.27
17.933,18.647,20.38
17.950,19.302,20.48
17.967,18.454,20.59
17.983,15.904,20.70
18.000,12.091,20.81
18.017,8.222,20.91
18.033,5.675,21.02
18.050,4.822,21.13
18.067,5.402,21.24
18.083,6.952,21.35
18.100,9.114,21.46
18.117,11.739,21.57
18.133,14.561,21.68
18.150,17.727,21.79
18.167,21.829,21.90
18.183,27.586,22.02
18.200,34.413,22.13
18.217,39.818,22.24
18.233,41.170,22.35
18.250,38.819,22.46
18.267,41.847,22.58
18.283,69.324,22.69
18.300,137.263,22.80
18.317,236.946,22.92
18.333,329.830,23.03
18.350,370.710,23.15
18.367,340.754,23.26
18.383,262.460,23.38
18.400,182.871,23.49
18.417,141.422,23.61
18.433,150.944,23.73
18.450,199.490,23.84
18.467,261.698,23.96
18.483,308.356,24.08
18.500,319.571,24.20
18.517,299.304,24.31
18.533,275.634,24.43
18.550,279.476,24.55
18.567,315.427,24.67
18.583,354.730,24.79
18.600,358.740,24.91
18.617,310.623,25.03
18.633,227.254,25.15
18.650,142.520,25.27
18.667,81.526,25.39
18.683,48.865,25.51
18.700,35.506,25.63
18.717,31.581,25.75
18.733,32.422,25.88
18.750,37.464,26.00
18.767,46.537,26.12
18.783,56.961,26.25
18.800,63.821,26.37
18.817,62.947,26.49
18.833,54.002,26.62
18.850,40.980,26.74
18.867,29.201,26.87
18.883,21.808,26.99
18.900,18.861,27.12
18.917,18.675,27.24
18.933,19.482,27.37
18.950,20.078,27.49
18.967,19.835,27.62
18.983,18.893,27.75
19.000,17.928,27.88
19.017,17.852,28.00
19.033,19.068,28.13
19.050,21.071,28.26
19.067,23.032,28.39
19.083,24.140,28.52
19.100,23.872,28.65
19.117,22.407,28.78
19.133,20.262,28.91
19.150,18.150,29.04
19.167,16.675,29.17
19.183,16.026,29.30
19.200,15.982,29.43
19.217,16.009,29.56
19.233,15.759,29.69
19.250,15.136,29.82
19.267,14.182,29.96
19.283,13.074,30.09
19.300,11.956,30.22
19.317,11.491,30.36
19.333,11.796,30.49
19.350,12.392,30.62
19.367,15.287,30.76
19.383,20.458,30.89
19.400,25.364,31.03
19.417,27.500,31.16
19.433,26.114,31.30
19.450,22.631,31.44
19.467,19.773,31.57
19.483,19.409,31.71
19.500,20.506,31.85
19.517,20.796,31.98
19.533,21.410,32.12
19.550,22.541,32.26
19.567,24.049,32.40
19.583,25.813,32.54
19.600,27.323,32.67
19.617,28.110,32.81
19.633,28.139,32.95
19.650,27.978,33.09
19.667,28.748,33.23
19.683,30.663,33.37
19.700,33.370,33.51
19.717,36.435,33.66
19.733,39.381,33.80
19.750,42.274,33.94
19.767,45.517,34.08
19.783,48.755,34.22
19.800,50.921,34.37
19.817,50.795,34.51
19.833,48.080,34.65
19.850,43.213,34.80
19.867,37.925,34.94
19.883,34.250,35.08
19.900,33.115,35.23
19.917,34.546,35.37
19.933,38.063,35.52
19.950,43.285,35.66
19.967,50.602,35.81
19.983,60.333,35.96
20.000,74.716,36.10
20.017,98.652,36.25
20.033,140.966,36.40
20.050,208.337,36.54
20.067,296.763,36.69
20.083,389.060,36.84
20.100,462.312,36.99
20.117,499.756,37.14
20.133,498.808,37.28
20.150,468.234,37.43
20.167,419.916,37.58
20.183,361.943,37.73
20.200,299.703,37.88
20.217,238.263,38.03
20.233,182.862,38.18
20.250,137.670,38.34
20.267,104.270,38.49
20.283,80.917,38.64
20.300,64.630,38.79
20.317,52.435,38.94
20.333,42.854,39.10
20.350,35.394,39.25
20.367,29.693,39.40
20.383,25.584,39.55
20.400,22.747,39.71
20.417,20.626,39.86
20.433,18.786,40.02
20.450,17.481,40.17
20.467,16.605,40.33
20.483,16.258,40.48
20.500,16.851,40.64
20.517,18.688,40.79
20.533,22.347,40.95
20.550,28.741,41.11
20.567,39.264,41.26
20.583,55.897,41.42
20.600,80.215,41.58
20.617,114.190,41.74
20.633,159.025,41.89
20.650,216.767,42.05
20.667,288.975,42.21
20.683,375.002,42.37
20.700,466.195,42.53
20.717,547.045,42.69
20.733,596.426,42.85
20.750,598.691,43.01
20.767,550.816,43.17
20.783,464.958,43.33
20.800,361.863,43.49
20.817,262.475,43.65
20.833,180.651,43.82
20.850,121.462,43.98
20.867,82.926,44.14
20.883,61.168,44.30
20.900,50.005,44.47
20.917,46.853,44.63
20.933,58.922,44.79
20.950,102.173,44.96
20.967,192.922,45.12
20.983,331.536,45.28
21.000,500.150,45.45
21.017,667.085,45.61
21.033,801.683,45.78
21.050,883.656,45.94
21.067,906.459,46.11
21.083,873.278,46.28
21.100,796.398,46.44
21.117,692.195,46.61
21.133,576.586,46.78
21.150,460.195,46.94
21.167,351.736,47.11
21.183,257.344,47.28
21.200,181.908,47.45
21.217,126.880,47.62
21.233,90.420,47.79
21.250,68.067,47.95
21.267,55.163,48.12
21.283,47.982,48.29
21.300,44.240,48.46
21.317,43.178,48.63
21.333,44.946,48.80
21.350,50.071,48.98
21.367,59.341,49.15
21.383,72.648,49.32
21.400,88.639,49.49
21.417,104.712,49.66
21.433,117.128,49.83
21.450,123.433,50.01
21.467,122.899,50.18
21.483,117.135,50.35
21.500,109.047,50.53
21.517,101.093,50.70
21.533,94.982,50.87
21.550,90.788,51.05
21.567,88.346,51.22
21.583,87.069,51.40
21.600,86.127,51.57
21.617,85.368,51.75
21.633,84.438,51.92
21.650,84.028,52.10
21.667,84.259,52.28
21.683,84.670,52.45
21.700,83.972,52.63
21.717,80.536,52.81
21.733,73.931,52.99
21.750,64.783,53.16
21.767,54.690,53.34
21.783,45.196,53.52
21.800,37.245,53.70
21.817,31.731,53.88
21.833,28.560,54.06
21.850,27.346,54.24
21.867,27.310,54.42
21.883,27.738,54.60
21.900,28.067,54.78
21.917,27.887,54.96
21.933,27.329,55.14
21.950,26.220,55.32
21.967,24.554,55.50
21.983,22.657,55.68
22.000,20.927,55.86
22.017,19.661,56.05
22.033,19.169,56.23
22.050,19.626,56.41
22.067,20.929,56.59
22.083,23.057,56.78
22.100,26.070,56.96
22.117,30.000,57.14
22.133,35.517,57.33
22.150,43.601,57.51
22.167,55.550,57.70
22.183,72.793,57.88
22.200,96.081,58.07
22.217,124.180,58.25
22.233,155.295,58.44
22.250,187.453,58.63
22.267,219.255,58.81
22.283,249.476,59.00
22.300,275.634,59.19
22.317,293.342,59.37
22.333,298.422,59.56
22.350,289.359,59.75
22.367,267.639,59.94
22.383,236.460,60.12
22.400,199.948,60.31
22.417,161.707,60.50
22.433,124.960,60.69
22.450,92.534,60.88
22.467,66.409,61.07
22.483,47.244,61.26
22.500,34.413,61.45
22.517,26.456,61.64
22.533,21.739,61.83
22.550,18.855,62.02
22.567,17.000,62.21
22.583,16.053,62.41
22.600,16.123,62.60
22.617,17.553,62.79
22.633,21.081,62.98
22.650,27.131,63.17
22.667,35.225,63.37
22.683,43.875,63.56
22.700,51.455,63.75
22.717,56.683,63.95
22.733,59.083,64.14
22.750,58.958,64.34
22.767,56.965,64.53
22.783,54.189,64.72
22.800,51.855,64.92
22.817,51.470,65.11
22.833,54.377,65.31
22.850,60.791,65.51
22.867,69.935,65.70
22.883,80.111,65.90
22.900,89.539,66.09
22.917,97.264,66.29
22.933,103.016,66.49
22.950,107.284,66.69
22.967,110.395,66.88
22.983,112.181,67.08
23.000,111.876,67.28
23.017,108.348,67.48
23.033,101.311,67.68
23.050,91.227,67.88
23.067,79.105,68.07
23.083,66.015,68.27
23.100,52.692,68.47
23.117,40.088,68.67
23.133,29.515,68.87
23.150,22.407,69.07
23.167,19.715,69.27
23.183,21.383,69.48
23.200,26.338,69.68
23.217,32.700,69.88
23.233,38.685,70.08
23.250,43.011,70.28
23.267,45.080,70.48
23.283,44.872,70.69
23.300,42.423,70.89
23.317,37.986,71.09
23.333,32.130,71.29
23.350,25.791,71.50
23.367,19.962,71.70
23.383,15.450,71.91
23.400,12.692,72.11
23.417,11.554,72.31
23.433,11.383,72.52
23.450,11.655,72.72
23.467,11.884,72.93
23.483,11.820,73.13
23.500,11.521,73.34
23.517,11.029,73.55
23.533,10.435,73.75
23.550,9.871,73.96
23.567,9.407,74.16
23.583,9.237,74.37
23.600,9.476,74.58
23.617,10.243,74.79
23.633,11.325,74.99
23.650,12.354,75.20
23.667,13.134,75.41
23.683,13.501,75.62
23.700,13.465,75.83
23.717,13.304,76.04
23.733,13.088,76.24
23.750,12.521,76.45
23.767,11.510,76.66
23.783,11.977,76.87
23.800,16.782,77.08
23.817,27.359,77.29
23.833,41.363,77.50
23.850,55.281,77.71
23.867,73.735,77.93
23.883,89.631,78.14
23.900,95.081,78.35
23.917,87.280,78.56
23.933,69.754,78.77
23.950,51.716,78.98
23.967,41.221,79.20
23.983,38.617,79.41
24.000,36.402,79.62
24.017,29.724,79.84
24.033,25.247,80.05
24.050,20.247,80.26
24.067,15.720,80.48
24.083,11.892,80.69
24.100,8.678,80.90
24.117,6.325,81.12
24.133,4.697,81.33
24.150,3.850,81.55
24.167,3.543,81.76
24.183,3.206,81.98
24.200,2.563,82.20
24.217,1.770,82.41
24.233,1.088,82.63
24.250,0.627,82.84
24.267,0.411,83.06
24.283,0.280,83.28
24.300,0.145,83.49
24.317,0.203,83.71
24.333,0.313,83.93
24.350,0.414,84.15
24.367,0.479,84.37
24.383,0.700,84.58
24.400,1.085,84.80
24.417,1.577,85.02
24.433,2.108,85.24
24.450,2.651,85.46
24.467,3.251,85.68
24.483,3.858,85.90
24.500,4.450,86.12
24.517,4.776,86.34
24.533,4.798,86.56
24.550,4.549,86.78
24.567,4.177,87.00
24.583,3.823,87.22
24.600,3.680,87.44
24.617,3.770,87.66
24.633,4.074,87.88
24.650,4.814,88.11
24.667,5.818,88.33
24.683,6.885,88.55
24.700,7.992,88.77
24.717,8.887,88.99
24.733,9.579,89.22
24.750,10.161,89.44
24.767,10.519,89.66
24.783,10.413,89.89
24.800,9.798,90.11
24.817,8.823,90.34
24.833,7.660,90.56
24.850,6.588,90.78
24.867,5.574,91.01
24.883,4.742,91.23
24.900,3.936,91.46
24.917,3.271,91.68
24.933,2.573,91.91
24.950,1.987,92.14
24.967,1.548,92.36
24.983,1.051,92.59
25.000,0.728,92.81
25.017,0.452,93.04
25.033,0.168,93.27
25.050,0.043,93.49
25.067,0.007,93.72
25.083,0.142,93.95
25.100,0.184,94.18
25.117,0.318,94.40
25.133,0.498,94.63
25.150,0.554,94.86
25.167,0.586,95.09
25.183,0.545,95.32
25.200,0.499,95.55
25.217,0.610,95.78
25.233,0.990,96.01
25.250,1.545,96.24
25.267,2.129,96.46
25.283,3.002,96.69
25.300,4.075,96.93
25.317,5.424,97.16
25.333,7.182,97.39
25.350,9.518,97.62
25.367,12.526,97.85
25.383,16.795,98.08
25.400,22.715,98.31
25.417,30.306,98.54
25.433,40.179,98.77
25.450,51.743,99.01
25.467,63.666,99.24
25.483,74.676,99.47
25.500,83.309,99.70
25.517,88.681,99.94
25.533,90.825,100.17
25.550,90.098,100.40
25.567,86.822,100.64
25.583,81.431,100.87
25.600,74.789,101.10
25.617,67.160,101.34
25.633,59.361,101.57
25.650,52.094,101.81
25.667,45.893,102.04
25.683,41.332,102.28
25.700,38.647,102.51
25.717,37.041,102.75
25.733,35.870,102.98
25.750,34.813,103.22
25.767,33.437,103.45
25.783,31.804,103.69
25.800,30.031,103.92
25.817,27.771,104.16
25.833,25.042,104.40
25.850,22.147,104.63
25.867,19.467,104.87
25.883,17.015,105.11
25.900,14.894,105.35
25.917,13.231,105.58
25.933,12.129,105.82
25.950,11.935,106.06
25.967,12.770,106.30
25.983,14.556,106.54
26.000,17.264,106.77
26.017,20.809,107.01
26.033,24.959,107.25
26.050,29.254,107.49
26.067,33.344,107.73
26.083,36.613,107.97
26.100,38.820,108.21
26.117,39.907,108.45
26.133,39.679,108.69
26.150,38.353,108.93
26.167,36.073,109.17
26.183,33.328,109.41
26.200,30.357,109.65
26.217,27.251,109.89
26.233,24.325,110.13
26.250,21.842,110.37
26.267,20.268,110.62
26.283,19.774,110.86
26.300,20.042,111.10
26.317,20.706,111.34
26.333,21.360,111.58
26.350,21.973,111.83
26.367,22.456,112.07
26.383,22.422,112.31
26.400,21.745,112.55
26.417,20.454,112.80
26.433,18.803,113.04
26.450,16.944,113.29
26.467,14.954,113.53
26.483,12.860,113.77
26.500,10.675,114.02
26.517,8.569,114.26
26.533,6.779,114.51
26.550,5.261,114.75
26.567,4.080,115.00
26.583,3.124,115.24
26.600,2.320,115.49
26.617,1.671,115.73
26.633,1.208,115.98
26.650,0.920,116.22
26.667,0.643,116.47
26.683,0.364,116.71
26.700,0.147,116.96
26.717,0.010,117.21
26.733,-0.031,117.45
26.750,-0.068,117.70
26.767,-0.183,117.95
26.783,-0.382,118.19
26.800,-0.535,118.44
26.817,-0.529,118.69
26.833,-0.451,118.94
26.850,-0.370,119.18
26.867,-0.317,119.43
26.883,-0.290,119.68
26.900,-0.308,119.93
26.917,-0.311,120.18
26.933,-0.274,120.43
26.950,-0.218,120.67
26.967,-0.099,120.92
26.983,0.098,121.17
27.000,0.357,121.42
27.017,0.737,121.67
27.033,1.170,121.92
27.050,1.715,122.17
27.067,2.511,122.42
27.083,3.635,122.67
27.100,5.102,122.92
27.117,6.795,123.17
27.133,8.572,123.42
27.150,10.262,123.67
27.167,11.734,123.92
27.183,13.009,124.18
27.200,13.990,124.43
27.217,14.524,124.68
27.233,14.490,124.93
27.250,13.818,125.18
27.267,12.683,125.43
27.283,11.263,125.69
27.300,9.773,125.94
27.317,8.306,126.19
27.333,6.786,126.44
27.350,5.339,126.70
27.367,4.105,126.95
27.383,3.036,127.20
27.400,2.144,127.46
27.417,1.544,127.71
27.433,1.220,127.96
27.450,1.086,128.22
27.467,1.042,128.47
27.483,0.922,128.73
27.500,0.575,128.98
27.517,0.151,129.23
27.533,-0.125,129.49
27.550,-0.178,129.74
27.567,-0.117,130.00
27.583,-0.072,130.25
27.600,-0.164,130.51
27.617,-0.291,130.76
27.633,-0.368,131.02
27.650,-0.407,131.28
27.667,-0.400,131.53
27.683,-0.453,131.79
27.700,-0.538,132.04
27.717,-0.526,132.30
27.733,-0.438,132.56
27.750,-0.352,132.81
27.767,-0.245,133.07
27.783,-0.228,133.33
27.800,-0.348,133.58
27.817,-0.501,133.84
27.833,-0.493,134.10
27.850,-0.447,134.36
27.867,-0.335,134.61
27.883,-0.268,134.87
27.900,-0.529,135.13
27.917,-0.427,135.39
27.933,0.033,135.65
27.950,0.543,135.90
27.967,0.810,136.16
27.983,0.701,136.42
28.000,0.411,136.68
28.017,0.289,136.94
28.033,0.612,137.20
28.050,1.137,137.46
28.067,1.331,137.72
28.083,1.673,137.98
28.100,1.840,138.24
28.117,2.020,138.50
28.133,2.092,138.76
28.150,1.945,139.02
28.167,1.638,139.28
28.183,1.303,139.54
28.200,1.030,139.80
28.217,0.871,140.06
28.233,0.665,140.32
28.250,0.426,140.58
28.267,0.176,140.84
28.283,0.080,141.10
28.300,0.061,141.37
28.317,0.019,141.63
28.333,-0.059,141.89
28.350,-0.204,142.15
28.367,-0.168,142.41
28.383,0.099,142.68
28.400,0.377,142.94
28.417,0.512,143.20
28.433,0.334,143.46
28.450,0.074,143.73
28.467,-0.144,143.99
28.483,-0.254,144.25
28.500,-0.183,144.52
28.517,-0.164,144.78
28.533,-0.114,145.04
28.550,-0.166,145.31
28.567,-0.288,145.57
28.583,-0.348,145.83
28.600,-0.430,146.10
28.617,-0.402,146.36
28.633,-0.353,146.63
28.650,-0.304,146.89
28.667,-0.288,147.16
28.683,-0.378,147.42
28.700,-0.430,147.69
28.717,-0.417,147.95
28.733,-0.372,148.22
28.750,-0.393,148.48
28.767,-0.495,148.75
28.783,-0.613,149.01
28.800,-0.667,149.28
28.817,-0.628,149.54
28.833,-0.615,149.81
28.850,-0.588,150.08
28.867,-0.641,150.34
28.883,-0.649,150.61
28.900,-0.599,150.87
28.917,-0.491,151.14
28.933,-0.271,151.41
28.950,-0.133,151.67
28.967,-0.190,151.94
28.983,-0.329,152.21
29.000,-0.467,152.48
29.017,-0.174,152.74
29.033,0.011,153.01
29.050,0.112,153.28
29.067,0.050,153.55
29.083,-0.067,153.81
29.100,-0.116,154.08
29.117,-0.190,154.35
29.133,-0.184,154.62
29.150,-0.209,154.89
29.167,-0.371,155.16
29.183,-0.295,155.42
29.200,-0.344,155.69
29.217,-0.307,155.96
29.233,-0.244,156.23
29.250,-0.295,156.50
29.267,-0.325,156.77
29.283,-0.287,157.04
29.300,-0.155,157.31
29.317,-0.137,157.58
29.333,-0.284,157.85
29.350,-0.371,158.12
29.367,-0.240,158.39
29.383,-0.631,158.66
29.400,-0.592,158.93
29.417,-0.180,159.20
29.433,0.441,159.47
29.450,0.800,159.74
29.467,0.581,160.01
29.483,0.010,160.28
29.500,-0.516,160.55
29.517,-0.468,160.82
29.533,-0.041,161.09
29.550,-0.213,161.37
29.567,-0.270,161.64
29.583,-0.362,161.91
29.600,-0.368,162.18
29.617,-0.307,162.45
29.633,-0.189,162.72
29.650,-0.122,163.00
29.667,-0.174,163.27
29.683,-0.272,163.54
29.700,-0.305,163.81
29.717,-0.209,164.09
29.733,-0.032,164.36
29.750,0.115,164.63
29.767,0.203,164.90
29.783,0.191,165.18
29.800,0.239,165.45
29.817,0.139,165.72
29.833,0.141,166.00
29.850,0.179,166.27
29.867,0.211,166.54
29.883,0.285,166.82
29.900,0.327,167.09
29.917,0.300,167.37
29.933,0.329,167.64
29.950,0.352,167.91
29.967,0.344,168.19
29.983,0.227,168.46
30.000,0.091,168.74
30.017,-0.003,169.01
30.033,0.139,169.29
30.050,0.493,169.56
30.067,0.671,169.84
30.083,0.526,170.11
30.100,0.250,170.39
30.117,0.003,170.66
30.133,-0.107,170.94
30.150,-0.065,171.21
30.167,-0.079,171.49
30.183,-0.140,171.76
30.200,-0.175,172.04
30.217,-0.052,172.31
30.233,0.061,172.59
30.250,0.077,172.87
30.267,-0.061,173.14
30.283,-0.191,173.42
30.300,-0.305,173.70
30.317,-0.415,173.97
30.333,-0.379,174.25
30.350,-0.154,174.53
30.367,0.116,174.80
30.383,0.289,175.08
30.400,0.309,175.36
30.417,0.225,175.63
30.433,0.130,175.91
30.450,0.153,176.19
30.467,0.260,176.47
30.483,0.275,176.74
30.500,0.173,177.02
30.517,0.149,177.30
30.533,0.175,177.58
30.550,0.184,177.85
30.567,0.171,178.13
30.583,0.129,178.41
30.600,0.056,178.69
30.617,-0.038,178.97
30.633,0.007,179.25
30.650,0.014,179.52
30.667,-0.076,179.80
30.683,-0.152,180.08
30.700,-0.173,180.36
30.717,-0.063,180.64
30.733,-0.003,180.92
30.750,0.026,181.20
30.767,0.032,181.48
30.783,0.143,181.76
30.800,0.353,182.04
30.817,0.437,182.31
30.833,0.394,182.59
30.850,0.284,182.87
30.867,0.091,183.15
30.883,-0.041,183.43
30.900,-0.148,183.71
30.917,-0.178,183.99
30.933,-0.142,184.27
30.950,-0.108,184.55
30.967,-0.106,184.84
30.983,-0.145,185.12
31.000,-0.213,185.40
31.017,-0.187,185.68
31.033,-0.104,185.96
31.050,-0.029,186.24
31.067,0.009,186.52
31.083,-0.013,186.80
31.100,-0.092,187.08
31.117,-0.143,187.36
31.133,-0.028,187.64
31.150,0.119,187.93
31.167,0.157,188.21
31.183,0.106,188.49
31.200,-0.026,188.77
31.217,-0.122,189.05
31.233,-0.096,189.33
31.250,-0.013,189.62
31.267,-0.143,189.90
31.283,-0.209,190.18
31.300,0.219,190.46
31.317,0.878,190.74
31.333,1.358,191.03
31.350,1.279,191.31
31.367,0.630,191.59
31.383,-0.038,191.88
31.400,-0.256,192.16
31.417,-0.097,192.44
31.433,-0.047,192.72
31.450,-0.140,193.01
31.467,-0.115,193.29
31.483,-0.047,193.57
31.500,0.007,193.86
31.517,-0.029,194.14
31.533,-0.172,194.42
31.550,-0.251,194.71
31.567,-0.170,194.99
31.583,-0.028,195.27
31.600,0.019,195.56
31.617,-0.077,195.84
31.633,-0.205,196.13
31.650,-0.235,196.41
31.667,-0.149,196.69
31.683,-0.057,196.98
31.700,-0.134,197.26
31.717,-0.268,197.55
31.733,-0.350,197.83
31.750,-0.315,198.12
31.767,-0.235,198.40
31.783,-0.199,198.69
31.800,-0.251,198.97
31.817,-0.312,199.25
31.833,-0.315,199.54
31.850,-0.294,199.82
31.867,-0.170,200.11
31.883,0.086,200.39
31.900,0.251,200.68
31.917,0.240,200.97
31.933,0.075,201.25
31.950,-0.118,201.54
31.967,-0.245,201.82
31.983,-0.250,202.11
32.000,-0.240,202.39
32.017,-0.298,202.68
32.033,-0.190,202.97
32.050,0.027,203.25
32.067,0.214,203.54
32.083,0.286,203.82
32.100,0.130,204.11
32.117,-0.122,204.40
32.133,-0.319,204.68
32.150,-0.319,204.97
32.167,-0.206,205.26
32.183,-0.140,205.54
32.200,-0.053,205.83
32.217,-0.028,206.12
32.233,0.003,206.40
32.250,0.065,206.69
32.267,-0.001,206.98
32.283,-0.037,207.26
32.300,-0.040,207.55
32.317,0.010,207.84
32.333,0.063,208.12
32.350,0.000,208.41
32.367,-0.107,208.70
32.383,-0.195,208.99
32.400,-0.146,209.27
32.417,0.008,209.56
32.433,0.063,209.85
32.450,0.063,210.14
32.467,-0.009,210.42
32.483,-0.073,210.71
32.500,-0.067,211.00
32.517,-0.102,211.29
32.533,-0.146,211.58
32.550,-0.159,211.87
32.567,-0.081,212.15
32.583,0.047,212.44
32.600,0.089,212.73
32.617,0.105,213.02
32.633,0.174,213.31
32.650,0.201,213.60
32.667,0.193,213.88
32.683,0.191,214.17
32.700,0.194,214.46
32.717,0.353,214.75
32.733,0.535,215.04
32.750,0.607,215.33
32.767,0.515,215.62
32.783,0.342,215.91
32.800,0.174,216.20
32.817,0.054,216.49
32.833,0.048,216.77
32.850,0.059,217.06
32.867,-0.071,217.35
32.883,-0.163,217.64
32.900,-0.321,217.93
32.917,-0.410,218.22
32.933,-0.369,218.51
32.950,-0.281,218.80
32.967,-0.211,219.09
32.983,-0.149,219.38
33.000,-0.060,219.67
33.017,-0.042,219.96
33.033,-0.082,220.25
33.050,-0.120,220.54
33.067,-0.039,220.83
33.083,0.164,221.12
33.100,0.385,221.41
33.117,0.449,221.70
33.133,0.266,221.99
33.150,-0.014,222.28
33.167,-0.155,222.57
33.183,-0.418,222.87
33.200,-0.366,223.16
33.217,0.006,223.45
33.233,0.394,223.74
33.250,0.647,224.03
33.267,0.554,224.32
33.283,0.302,224.61
33.300,0.166,224.90
33.317,0.347,225.19
33.333,0.563,225.48
33.350,0.363,225.78
33.367,0.102,226.07
33.383,-0.045,226.36
33.400,-0.038,226.65
33.417,0.149,226.94
33.433,0.178,227.23
33.450,0.040,227.52
33.467,-0.106,227.82
33.483,-0.138,228.11
33.500,0.018,228.40
33.517,0.248,228.69
33.533,0.329,228.98
33.550,0.260,229.27
33.567,0.095,229.57
33.583,-0.031,229.86
33.600,-0.065,230.15
33.617,-0.133,230.44
33.633,-0.089,230.74
33.650,-0.117,231.03
33.667,0.038,231.32
33.683,0.210,231.61
33.700,0.402,231.90
33.717,0.375,232.20
33.733,0.188,232.49
33.750,0.035,232.78
33.767,0.004,233.08
33.783,-0.017,233.37
33.800,0.026,233.66
33.817,0.035,233.95
33.833,0.042,234.25
33.850,0.032,234.54
33.867,-0.003,234.83
33.883,-0.125,235.13
33.900,-0.219,235.42
33.917,-0.195,235.71
33.933,-0.129,236.00
33.950,-0.151,236.30
33.967,-0.315,236.59
33.983,-0.372,236.88
34.000,-0.263,237.18
34.017,0.021,237.47
34.033,0.154,237.76
34.050,0.124,238.06
34.067,0.025,238.35
34.083,-0.043,238.65
34.100,0.085,238.94
34.117,0.115,239.23
34.133,0.005,239.53
34.150,0.084,239.82
34.167,0.282,240.11
34.183,0.469,240.41
34.200,0.333,240.70
34.217,0.013,241.00
34.233,-0.276,241.29
34.250,-0.360,241.58
34.267,-0.196,241.88
34.283,-0.128,242.17
34.300,-0.181,242.47
34.317,-0.248,242.76
34.333,-0.358,243.06
34.350,-0.370,243.35
34.367,-0.336,243.64
34.383,-0.230,243.94
34.400,-0.119,244.23
34.417,-0.055,244.53
34.433,-0.074,244.82
34.450,-0.060,245.12
34.467,-0.080,245.41
34.483,-0.087,245.71
34.500,-0.153,246.00
34.517,-0.288,246.30
34.533,-0.319,246.59
34.550,-0.224,246.89
34.567,-0.075,247.18
34.583,0.014,247.48
34.600,-0.019,247.77
34.617,-0.146,248.07
34.633,-0.158,248.36
34.650,0.051,248.66
34.667,0.302,248.95
34.683,0.352,249.25
34.700,0.323,249.54
34.717,0.225,249.84
34.733,0.174,250.13
34.750,0.160,250.43
34.767,0.239,250.72
34.783,0.308,251.02
34.800,0.390,251.31
34.817,0.337,251.61
34.833,0.111,251.91
34.850,-0.162,252.20
34.867,-0.346,252.50
34.883,-0.368,252.79
34.900,-0.211,253.09
34.917,-0.137,253.38
34.933,-0.098,253.68
34.950,-0.128,253.98
34.967,-0.069,254.27
34.983,0.201,254.57
35.000,0.569,254.86
35.017,0.892,255.16
35.033,0.902,255.46
35.050,0.585,255.75
35.067,0.244,256.05
35.083,0.012,256.34
35.100,0.011,256.64
35.117,0.053,256.94
35.133,0.051,257.23
35.150,0.036,257.53
35.167,-0.002,257.83
35.183,0.059,258.12
35.200,0.152,258.42
35.217,0.085,258.72
35.233,-0.051,259.01
35.250,-0.108,259.31
35.267,-0.057,259.61
35.283,0.017,259.90
35.300,0.022,260.20
35.317,-0.113,260.50
35.333,-0.310,260.79
35.350,-0.332,261.09
35.367,-0.225,261.39
35.383,-0.196,261.68
35.400,-0.226,261.98
35.417,-0.212,262.28
35.433,-0.178,262.57
35.450,-0.120,262.87
35.467,-0.053,263.17
35.483,-0.073,263.46
35.500,-0.089,263.76
35.517,-0.025,264.06
35.533,-0.040,264.36
35.550,-0.142,264.65
35.567,-0.231,264.95
35.583,-0.265,265.25
35.600,-0.190,265.54
35.617,-0.083,265.84
35.633,-0.022,266.14
35.650,-0.037,266.44
35.667,-0.014,266.73
35.683,0.084,267.03
35.700,0.086,267.33
35.717,-0.012,267.63
35.733,-0.163,267.92
35.750,-0.361,268.22
35.767,-0.475,268.52
35.783,-0.396,268.82
35.800,-0.301,269.11
35.817,-0.328,269.41
35.833,-0.179,269.71
35.850,0.277,270.01
35.867,0.722,270.30
35.883,0.851,270.60
35.900,0.567,270.90
35.917,0.063,271.20
35.933,-0.279,271.50
35.950,-0.227,271.79
35.967,-0.063,272.09
35.983,-0.123,272.39
36.000,-0.223,272.69
36.017,-0.245,272.99
36.033,-0.224,273.28
36.050,-0.229,273.58
36.067,-0.229,273.88
36.083,-0.150,274.18
36.100,-0.106,274.48
36.117,-0.102,274.77
36.133,-0.156,275.07
36.150,-0.281,275.37
36.167,-0.261,275.67
36.183,-0.121,275.97
36.200,-0.039,276.27
36.217,-0.109,276.56
36.233,-0.206,276.86
36.250,-0.209,277.16
36.267,-0.189,277.46
36.283,-0.113,277.76
36.300,-0.007,278.06
36.317,-0.017,278.35
36.333,-0.022,278.65
36.350,-0.016,278.95
36.367,-0.013,279.25
36.383,-0.017,279.55
36.400,-0.022,279.85
36.417,-0.067,280.14
36.433,-0.183,280.44
36.450,-0.244,280.74
36.467,-0.144,281.04
36.483,-0.126,281.34
36.500,-0.044,281.64
36.517,0.151,281.94
36.533,0.343,282.24
36.550,0.448,282.53
36.567,0.409,282.83
36.583,0.223,283.13
36.600,-0.082,283.43
36.617,-0.217,283.73
36.633,-0.170,284.03
36.650,-0.126,284.33
36.667,-0.059,284.63
36.683,0.012,284.92
36.700,0.031,285.22
36.717,0.031,285.52
36.733,0.013,285.82
36.750,0.027,286.12
36.767,0.028,286.42
36.783,0.152,286.72
36.800,0.279,287.02
36.817,0.336,287.32
36.833,0.250,287.62
36.850,0.186,287.92
36.867,0.061,288.21
36.883,0.001,288.51
36.900,-0.060,288.81
36.917,-0.135,289.11
36.933,-0.229,289.41
36.950,-0.251,289.71
36.967,-0.196,290.01
36.983,-0.156,290.31
37.000,-0.129,290.61
37.017,-0.104,290.91
37.033,-0.225,291.21
37.050,-0.301,291.51
37.067,-0.202,291.81
37.083,-0.058,292.10
37.100,0.053,292.40
37.117,0.025,292.70
37.133,-0.077,293.00
37.150,-0.150,293.30
37.167,-0.025,293.60
37.183,0.227,293.90
37.200,0.338,294.20
37.217,0.215,294.50
37.233,-0.016,294.80
37.250,-0.145,295.10
37.267,-0.106,295.40
37.283,-0.098,295.70
37.300,-0.038,296.00
37.317,-0.064,296.30
37.333,-0.022,296.60
37.350,0.059,296.90
37.367,0.062,297.20
37.383,-0.094,297.50
37.400,-0.247,297.80
37.417,-0.121,298.09
37.433,0.004,298.39
37.450,0.159,298.69
37.467,0.482,298.99
37.483,0.790,299.29
37.500,1.005,299.59
37.517,0.860,299.89
37.533,0.486,300.19
37.550,0.051,300.49
37.567,-0.179,300.79
37.583,-0.179,301.09
37.600,-0.158,301.39
37.617,-0.122,301.69
37.633,-0.096,301.99
37.650,0.068,302.29
37.667,0.105,302.59
37.683,-0.014,302.89
37.700,-0.139,303.19
37.717,-0.190,303.49
37.733,-0.209,303.79
37.750,-0.175,304.09
37.767,-0.165,304.39
37.783,-0.112,304.69
37.800,0.003,304.99
37.817,0.168,305.29
37.833,0.196,305.59
37.850,0.172,305.89
37.867,0.095,306.19
37.883,0.034,306.49
37.900,0.034,306.79
37.917,0.111,307.09
37.933,0.069,307.39
37.950,0.099,307.69
37.967,0.227,307.99
37.983,0.296,308.29
38.000,0.205,308.59
38.017,0.104,308.89
38.033,0.040,309.19
38.050,-0.015,309.49
38.067,-0.013,309.79
38.083,-0.075,310.09
38.100,-0.190,310.39
38.117,-0.183,310.69
38.133,-0.062,310.99
38.150,0.021,311.29
38.167,-0.019,311.59
38.183,-0.057,311.89
38.200,-0.111,312.19
38.217,-0.051,312.49
38.233,-0.011,312.79
38.250,-0.030,313.09
38.267,-0.031,313.39
38.283,-0.008,313.69
38.300,0.079,313.99
38.317,0.065,314.29
38.333,0.039,314.59
38.350,-0.059,314.89
38.367,-0.154,315.19
38.383,-0.120,315.49
38.400,-0.150,315.79
38.417,-0.168,316.09
38.433,-0.182,316.39
38.450,-0.213,316.69
38.467,-0.184,316.99
38.483,-0.137,317.29
38.500,-0.041,317.59
38.517,0.045,317.89
38.533,0.069,318.19
38.550,0.019,318.49
38.567,-0.100,318.79
38.583,-0.112,319.09
38.600,-0.071,319.39
38.617,-0.027,319.69
38.633,0.271,319.99
38.650,0.737,320.29
38.667,1.106,320.60
38.683,1.139,320.90
38.700,0.819,321.20
38.717,0.321,321.50
38.733,-0.008,321.80
38.750,-0.116,322.10
38.767,-0.117,322.40
38.783,-0.124,322.70
38.800,-0.027,323.00
38.817,0.081,323.30
38.833,0.162,323.60
38.850,0.140,323.90
38.867,0.132,324.20
38.883,0.063,324.50
38.900,0.127,324.80
38.917,0.271,325.10
38.933,0.455,325.40
38.950,0.510,325.70
38.967,0.358,326.00
38.983,0.141,326.30
39.000,-0.010,326.60
39.017,-0.053,326.90
39.033,-0.026,327.20
39.050,-0.073,327.50
39.067,-0.141,327.80
39.083,-0.155,328.10
39.100,-0.151,328.40
39.117,-0.084,328.70
39.133,-0.058,329.00
39.150,-0.092,329.30
39.167,-0.197,329.60
39.183,-0.307,329.90
39.200,-0.225,330.20
39.217,0.035,330.50
39.233,-0.551,330.80
39.250,0.130,331.10
39.267,3.485,331.40
39.283,7.759,331.70
39.300,9.980,332.00
39.317,8.589,332.30
39.333,4.480,332.60
39.350,0.488,332.91
39.367,-0.912,333.21
39.383,-0.209,333.51
39.400,-0.103,333.81
39.417,-0.315,334.11
39.433,-0.266,334.41
39.450,-0.170,334.71
39.467,-0.078,335.01
39.483,0.001,335.31
39.500,-0.085,335.61
39.517,-0.283,335.91
39.533,-0.427,336.21
39.550,-0.445,336.51
39.567,-0.372,336.81
39.583,-0.286,337.11
39.600,-0.254,337.41
39.617,-0.275,337.71
39.633,-0.278,338.01
39.650,-0.273,338.31
39.667,-0.292,338.61
39.683,-0.297,338.91
39.700,-0.268,339.21
39.717,-0.134,339.51
39.733,-0.002,339.81
39.750,0.014,340.11
39.767,0.035,340.41
39.783,0.160,340.71
39.800,0.322,341.01
39.817,0.351,341.31
39.833,0.247,341.61
39.850,0.139,341.91
39.867,0.084,342.21
39.883,0.151,342.51
39.900,0.177,342.81
39.917,0.032,343.11
39.933,-0.146,343.41
39.950,-0.205,343.71
39.967,-0.158,344.01
39.983,-0.042,344.31
40.000,0.088,344.61
40.017,0.125,344.91
40.033,0.023,345.21
40.050,-0.124,345.51
40.067,-0.230,345.81
40.083,-0.247,346.11
40.100,-0.199,346.41
40.117,-0.186,346.71
40.133,-0.248,347.01
40.150,-0.339,347.31
40.167,-0.305,347.61
40.183,-0.218,347.91
40.200,-0.191,348.21
40.217,-0.256,348.51
40.233,-0.358,348.81
40.250,-0.380,349.11
40.267,-0.354,349.41
40.283,-0.337,349.71
40.300,-0.260,350.01
40.317,-0.189,350.31
40.333,-0.062,350.61
40.350,0.056,350.91
40.367,0.132,351.21
40.383,0.156,351.51
40.400,0.134,351.81
40.417,0.116,352.11
40.433,0.058,352.41
40.450,-0.048,352.71
40.467,-0.098,353.01
40.483,-0.122,353.31
40.500,-0.176,353.61
40.517,-0.270,353.91
40.533,-0.266,354.21
40.550,-0.188,354.51
40.567,-0.161,354.81
40.583,-0.166,355.11
40.600,-0.152,355.41
40.617,-0.148,355.71
40.633,-0.070,356.01
40.650,-0.009,356.31
40.667,-0.065,356.60
40.683,-0.149,356.90
40.700,-0.051,357.20
40.717,0.168,357.50
40.733,0.280,357.80
40.750,0.226,358.10
40.767,0.132,358.40
40.783,0.126,358.70
40.800,0.272,359.00
40.817,0.331,359.30
40.833,0.179,359.60
40.850,-0.052,359.90
40.867,-0.191,360.20
40.883,-0.180,360.50
40.900,-0.107,360.80
40.917,-0.030,361.10
40.933,-0.061,361.40
40.950,-0.027,361.70
40.967,0.092,362.00
40.983,0.089,362.30
41.000,-0.018,362.60
41.017,-0.029,362.89
41.033,0.010,363.19
41.050,0.122,363.49
41.067,0.185,363.79
41.083,0.089,364.09
41.100,-0.213,364.39
41.117,-0.396,364.69
41.133,-0.372,364.99
41.150,-0.331,365.29
41.167,-0.303,365.59
41.183,-0.294,365.89
41.200,-0.305,366.19
41.217,-0.216,366.49
41.233,-0.027,366.79
41.250,0.102,367.08
41.267,0.088,367.38
41.283,-0.003,367.68
41.300,-0.059,367.98
41.317,-0.116,368.28
41.333,-0.053,368.58
41.350,0.073,368.88
41.367,0.381,369.18
41.383,0.696,369.48
41.400,0.890,369.78
41.417,0.730,370.08
41.433,0.361,370.37
41.450,-0.010,370.67
41.467,-0.186,370.97
41.483,-0.200,371.27
41.500,-0.160,371.57
41.517,-0.233,371.87
41.533,-0.226,372.17
41.550,-0.089,372.47
41.567,0.063,372.77
41.583,0.129,373.07
41.600,0.196,373.36
41.617,0.252,373.66
41.633,0.302,373.96
41.650,0.240,374.26
41.667,0.144,374.56
41.683,-0.098,374.86
41.700,-0.138,375.16
41.717,-0.141,375.46
