VERSION=1.3
ExportFileName=PM HZ 4_2025-05-14_13-24-16_labchip_PURE_Data_C4
SampleLabel=C4
SampleName=PM HZ 4
SampleComment=
SampleAreaConcRatio=0.011999
SampleLowerMarkerTime=12.22
SampleUpperMarkerTime=-1.00
SamplePeakTimes=12.22,15.57,16.30,16.55,16.78,16.97,17.17,17.33,17.65,17.90,18.18,18.30,18.43,18.53,18.77,18.92,19.07,19.37,19.75,20.07,20.67,20.97,21.42,22.25,22.90,23.90,24.73,25.48,26.08,27.17,39.73
SamplePeakSizes=1.298,8.794,11.841,13.014,14.172,15.125,16.209,17.147,19.017,20.576,22.431,23.223,24.146,24.852,26.546,27.668,28.817,31.192,34.379,37.138,42.677,45.597,50.161,59.179,66.706,79.081,90.085,100.486,109.125,125.383,349.455
SamplePeakQuantities=,,11.3672,3.2457,6.7616,3.9461,3.8010,39.8085,9.7678,22.0391,29.2756,178.8153,205.4996,334.3067,52.4276,14.0960,41.6631,23.2472,90.6392,774.7618,878.9955,1035.3837,507.1934,922.8405,813.4781,128.9957,35.9444,296.4484,185.6379,32.0014,5.1457
PlateFileName=2025-05-14_13-24-16_labchip_PURE
PlateAssayName=HT Protein Express 200
PlateBarCode=N/A
WellAquisitionTime=5/14/2025 1:57:35 PM 
PlateDataFrequency=60
PlateDataStartTime=11.00
PlateDataEndTime=42.00
PlateConcUnits=ng/ul
PlateSizeUnits=kDa
PlateLadderSizes=1.40,15.90,20.40,28.90,48.40,68.40,119.20
ChipID=H296P-0563N-03
Operator=ACJS
DATA
Time,Value,Size
0.000,33.851,0.00
0.017,33.851,0.00
0.033,33.851,0.00
0.050,33.851,0.00
0.067,33.836,0.00
0.083,33.830,0.00
0.100,33.842,0.00
0.117,33.842,0.00
0.133,33.814,0.00
0.150,33.796,0.00
0.167,33.693,0.00
0.183,33.607,0.00
0.200,33.613,0.00
0.217,33.558,0.00
0.233,33.503,0.00
0.250,33.586,0.00
0.267,33.606,0.00
0.283,33.436,0.00
0.300,33.040,0.00
0.317,32.527,0.00
0.333,32.049,0.00
0.350,31.720,0.00
0.367,31.442,0.00
0.383,30.992,0.00
0.400,30.467,0.00
0.417,29.835,0.00
0.433,29.161,0.00
0.450,28.440,0.00
0.467,27.748,0.00
0.483,26.950,0.00
0.500,26.168,0.00
0.517,25.397,0.00
0.533,24.641,0.00
0.550,23.842,0.00
0.567,23.031,0.00
0.583,22.207,0.00
0.600,21.454,0.00
0.617,20.788,0.00
0.633,20.216,0.00
0.650,19.536,0.00
0.667,18.851,0.00
0.683,18.141,0.00
0.700,17.577,0.00
0.717,17.041,0.00
0.733,16.523,0.00
0.750,16.003,0.00
0.767,15.465,0.00
0.783,14.965,0.00
0.800,14.479,0.00
0.817,14.046,0.00
0.833,13.741,0.00
0.850,13.447,0.00
0.867,13.174,0.00
0.883,12.780,0.00
0.900,12.376,0.00
0.917,11.994,0.00
0.933,11.530,0.00
0.950,11.098,0.00
0.967,10.705,0.00
0.983,10.294,0.00
1.000,10.027,0.00
1.017,9.772,0.00
1.033,9.572,0.00
1.050,9.318,0.00
1.067,9.142,0.00
1.083,8.904,0.00
1.100,8.639,0.00
1.117,8.482,0.00
1.133,8.325,0.00
1.150,8.155,0.00
1.167,8.046,0.00
1.183,7.853,0.00
1.200,7.698,0.00
1.217,7.528,0.00
1.233,7.410,0.00
1.250,7.155,0.00
1.267,6.913,0.00
1.283,6.655,0.00
1.300,6.476,0.00
1.317,6.438,0.00
1.333,6.388,0.00
1.350,6.241,0.00
1.367,6.007,0.00
1.383,5.792,0.00
1.400,5.709,0.00
1.417,5.648,0.00
1.433,5.536,0.00
1.450,5.280,0.00
1.467,5.036,0.00
1.483,4.879,0.00
1.500,4.793,0.00
1.517,4.771,0.00
1.533,4.691,0.00
1.550,4.616,0.00
1.567,4.479,0.00
1.583,4.335,0.00
1.600,4.172,0.00
1.617,4.032,0.00
1.633,3.960,0.00
1.650,3.988,0.00
1.667,4.000,0.00
1.683,3.954,0.00
1.700,3.814,0.00
1.717,3.667,0.00
1.733,3.518,0.00
1.750,3.469,0.00
1.767,3.398,0.00
1.783,3.299,0.00
1.800,3.188,0.00
1.817,3.074,0.00
1.833,2.952,0.00
1.850,2.892,0.00
1.867,2.837,0.00
1.883,2.722,0.00
1.900,2.609,0.00
1.917,2.552,0.00
1.933,2.565,0.00
1.950,2.614,0.00
1.967,2.623,0.00
1.983,2.491,0.00
2.000,2.277,0.00
2.017,2.141,0.00
2.033,2.117,0.00
2.050,2.106,0.00
2.067,2.054,0.00
2.083,1.912,0.00
2.100,1.796,0.00
2.117,1.756,0.00
2.133,1.759,0.00
2.150,1.817,0.00
2.167,1.801,0.00
2.183,1.739,0.00
2.200,1.671,0.00
2.217,1.576,0.00
2.233,1.453,0.00
2.250,1.317,0.00
2.267,1.250,0.00
2.283,1.265,0.00
2.300,1.265,0.00
2.317,1.278,0.00
2.333,1.182,0.00
2.350,1.069,0.00
2.367,1.018,0.00
2.383,0.942,0.00
2.400,0.878,0.00
2.417,0.804,0.00
2.433,0.723,0.00
2.450,0.656,0.00
2.467,0.592,0.00
2.483,0.539,0.00
2.500,0.454,0.00
2.517,0.374,0.00
2.533,0.327,0.00
2.550,0.303,0.00
2.567,0.330,0.00
2.583,0.319,0.00
2.600,0.240,0.00
2.617,0.117,0.00
2.633,0.007,0.00
2.650,-0.038,0.00
2.667,-0.074,0.00
2.683,-0.166,0.00
2.700,-0.310,0.00
2.717,-0.426,0.00
2.733,-0.516,0.00
2.750,-0.534,0.00
2.767,-0.525,0.00
2.783,-0.581,0.00
2.800,-0.688,0.00
2.817,-0.776,0.00
2.833,-0.839,0.00
2.850,-0.906,0.00
2.867,-0.961,0.00
2.883,-0.995,0.00
2.900,-1.053,0.00
2.917,-1.068,0.00
2.933,-1.066,0.00
2.950,-1.122,0.00
2.967,-1.203,0.00
2.983,-1.243,0.00
3.000,-1.230,0.00
3.017,-1.216,0.00
3.033,-1.228,0.00
3.050,-1.262,0.00
3.067,-1.371,0.00
3.083,-1.480,0.00
3.100,-1.509,0.00
3.117,-1.496,0.00
3.133,-1.522,0.00
3.150,-1.595,0.00
3.167,-1.684,0.00
3.183,-1.749,0.00
3.200,-1.770,0.00
3.217,-1.794,0.00
3.233,-1.927,0.00
3.250,-2.125,0.00
3.267,-2.254,0.00
3.283,-2.256,0.00
3.300,-2.204,0.00
3.317,-2.185,0.00
3.333,-2.238,0.00
3.350,-2.341,0.00
3.367,-2.550,0.00
3.383,-2.911,0.00
3.400,-3.408,0.00
3.417,-3.974,0.00
3.433,-4.497,0.00
3.450,-4.904,0.00
3.467,-5.260,0.00
3.483,-5.614,0.00
3.500,-5.910,0.00
3.517,-6.132,0.00
3.533,-6.325,0.00
3.550,-6.515,0.00
3.567,-6.719,0.00
3.583,-6.877,0.00
3.600,-6.929,0.00
3.617,-6.916,0.00
3.633,-6.934,0.00
3.650,-7.004,0.00
3.667,-7.077,0.00
3.683,-7.127,0.00
3.700,-7.146,0.00
3.717,-7.143,0.00
3.733,-7.128,0.00
3.750,-7.096,0.00
3.767,-7.075,0.00
3.783,-7.071,0.00
3.800,-7.101,0.00
3.817,-7.172,0.00
3.833,-7.236,0.00
3.850,-7.251,0.00
3.867,-7.224,0.00
3.883,-7.182,0.00
3.900,-7.148,0.00
3.917,-7.151,0.00
3.933,-7.194,0.00
3.950,-7.203,0.00
3.967,-7.199,0.00
3.983,-7.233,0.00
4.000,-7.295,0.00
4.017,-7.347,0.00
4.033,-7.377,0.00
4.050,-7.402,0.00
4.067,-7.409,0.00
4.083,-7.393,0.00
4.100,-7.361,0.00
4.117,-7.319,0.00
4.133,-7.312,0.00
4.150,-7.341,0.00
4.167,-7.369,0.00
4.183,-7.343,0.00
4.200,-7.329,0.00
4.217,-7.369,0.00
4.233,-7.443,0.00
4.250,-7.486,0.00
4.267,-7.505,0.00
4.283,-7.536,0.00
4.300,-7.591,0.00
4.317,-7.651,0.00
4.333,-7.666,0.00
4.350,-7.640,0.00
4.367,-7.662,0.00
4.383,-7.695,0.00
4.400,-7.673,0.00
4.417,-7.584,0.00
4.433,-7.523,0.00
4.450,-7.502,0.00
4.467,-7.530,0.00
4.483,-7.553,0.00
4.500,-7.541,0.00
4.517,-7.493,0.00
4.533,-7.452,0.00
4.550,-7.406,0.00
4.567,-7.345,0.00
4.583,-7.308,0.00
4.600,-7.302,0.00
4.617,-7.308,0.00
4.633,-7.322,0.00
4.650,-7.292,0.00
4.667,-7.202,0.00
4.683,-7.062,0.00
4.700,-6.960,0.00
4.717,-6.891,0.00
4.733,-6.852,0.00
4.750,-6.809,0.00
4.767,-6.707,0.00
4.783,-6.521,0.00
4.800,-6.335,0.00
4.817,-6.172,0.00
4.833,-6.064,0.00
4.850,-5.964,0.00
4.867,-5.850,0.00
4.883,-5.644,0.00
4.900,-5.361,0.00
4.917,-5.078,0.00
4.933,-4.822,0.00
4.950,-4.602,0.00
4.967,-4.480,0.00
4.983,-4.306,0.00
5.000,-4.064,0.00
5.017,-3.719,0.00
5.033,-3.358,0.00
5.050,-3.013,0.00
5.067,-2.788,0.00
5.083,-2.653,0.00
5.100,-2.469,0.00
5.117,-2.253,0.00
5.133,-2.020,0.00
5.150,-1.820,0.00
5.167,-1.682,0.00
5.183,-1.552,0.00
5.200,-1.383,0.00
5.217,-1.200,0.00
5.233,-1.097,0.00
5.250,-1.051,0.00
5.267,-0.969,0.00
5.283,-0.863,0.00
5.300,-0.779,0.00
5.317,-0.738,0.00
5.333,-0.692,0.00
5.350,-0.645,0.00
5.367,-0.527,0.00
5.383,-0.403,0.00
5.400,-0.304,0.00
5.417,-0.278,0.00
5.433,-0.268,0.00
5.450,-0.435,0.00
5.467,-0.851,0.00
5.483,-1.297,0.00
5.500,-1.671,0.00
5.517,-1.957,0.00
5.533,-2.167,0.00
5.550,-2.354,0.00
5.567,-2.544,0.00
5.583,-2.629,0.00
5.600,-2.521,0.00
5.617,-2.334,0.00
5.633,-2.270,0.00
5.650,-2.075,0.00
5.667,-1.586,0.00
5.683,-1.084,0.00
5.700,-0.912,0.00
5.717,-1.181,0.00
5.733,-1.732,0.00
5.750,-2.121,0.00
5.767,-2.200,0.00
5.783,-2.001,0.00
5.800,-1.953,0.00
5.817,-2.039,0.00
5.833,-2.107,0.00
5.850,-2.205,0.00
5.867,-2.296,0.00
5.883,-2.390,0.00
5.900,-2.426,0.00
5.917,-2.402,0.00
5.933,-2.470,0.00
5.950,-2.545,0.00
5.967,-2.632,0.00
5.983,-2.653,0.00
6.000,-2.596,0.00
6.017,-2.499,0.00
6.033,-2.440,0.00
6.050,-2.420,0.00
6.067,-2.415,0.00
6.083,-2.394,0.00
6.100,-2.494,0.00
6.117,-2.655,0.00
6.133,-2.799,0.00
6.150,-2.826,0.00
6.167,-2.782,0.00
6.183,-2.732,0.00
6.200,-2.858,0.00
6.217,-3.037,0.00
6.233,-3.176,0.00
6.250,-3.168,0.00
6.267,-3.085,0.00
6.283,-3.091,0.00
6.300,-3.290,0.00
6.317,-3.534,0.00
6.333,-3.640,0.00
6.350,-3.584,0.00
6.367,-3.494,0.00
6.383,-3.425,0.00
6.400,-3.512,0.00
6.417,-3.717,0.00
6.433,-3.964,0.00
6.450,-4.145,0.00
6.467,-4.229,0.00
6.483,-4.217,0.00
6.500,-4.191,0.00
6.517,-4.205,0.00
6.533,-4.319,0.00
6.550,-5.561,0.00
6.567,-10.854,0.00
6.583,22.743,0.00
6.600,0.658,0.00
6.617,-52.572,0.00
6.633,-12.154,0.00
6.650,258.147,0.00
6.667,718.591,0.00
6.683,1430.467,0.00
6.700,2230.339,0.00
6.717,2875.198,0.00
6.733,3235.799,0.00
6.750,3350.388,0.00
6.767,3258.018,0.00
6.783,3139.059,0.00
6.800,3111.374,0.00
6.817,3147.600,0.00
6.833,3124.478,0.00
6.850,3128.393,0.00
6.867,3130.598,0.00
6.883,3134.205,0.00
6.900,3135.979,0.00
6.917,3134.948,0.00
6.933,3134.771,0.00
6.950,3135.092,0.00
6.967,3136.384,0.00
6.983,3138.376,0.00
7.000,3140.443,0.00
7.017,3141.638,0.00
7.033,3142.765,0.00
7.050,3143.299,0.00
7.067,3142.602,0.00
7.083,3142.269,0.00
7.100,3143.072,0.00
7.117,3143.372,0.00
7.133,3142.787,0.00
7.150,3141.412,0.00
7.167,3140.713,0.00
7.183,3140.680,0.00
7.200,3140.633,0.00
7.217,3139.307,0.00
7.233,3138.017,0.00
7.250,3138.035,0.00
7.267,3138.611,0.00
7.283,3139.152,0.00
7.300,3138.993,0.00
7.317,3138.717,0.00
7.333,3139.545,0.00
7.350,3139.526,0.00
7.367,3136.187,0.00
7.383,3130.474,0.00
7.400,3124.021,0.00
7.417,3117.302,0.00
7.433,3111.511,0.00
7.450,3105.651,0.00
7.467,3099.699,0.00
7.483,3093.505,0.00
7.500,3087.938,0.00
7.517,3082.811,0.00
7.533,3076.201,0.00
7.550,3068.764,0.00
7.567,3061.502,0.00
7.583,3054.078,0.00
7.600,3047.473,0.00
7.617,3042.113,0.00
7.633,3036.620,0.00
7.650,3030.414,0.00
7.667,3024.771,0.00
7.683,3019.462,0.00
7.700,3012.720,0.00
7.717,3005.605,0.00
7.733,2998.218,0.00
7.750,2991.698,0.00
7.767,2986.147,0.00
7.783,2981.774,0.00
7.800,2976.505,0.00
7.817,2970.857,0.00
7.833,2965.034,0.00
7.850,2958.506,0.00
7.867,2952.929,0.00
7.883,2948.413,0.00
7.900,2943.398,0.00
7.917,2938.572,0.00
7.933,2932.435,0.00
7.950,2927.040,0.00
7.967,2921.295,0.00
7.983,2915.735,0.00
8.000,2910.259,0.00
8.017,2903.878,0.00
8.033,2899.386,0.00
8.050,2895.298,0.00
8.067,2890.267,0.00
8.083,2884.240,0.00
8.100,2878.052,0.00
8.117,2872.080,0.00
8.133,2866.128,0.00
8.150,2860.331,0.00
8.167,2854.184,0.00
8.183,2848.143,0.00
8.200,2843.735,0.00
8.217,2838.419,0.00
8.233,2832.942,0.00
8.250,2827.397,0.00
8.267,2822.040,0.00
8.283,2816.336,0.00
8.300,2811.330,0.00
8.317,2806.023,0.00
8.333,2799.763,0.00
8.350,2794.145,0.00
8.367,2789.261,0.00
8.383,2783.808,0.00
8.400,2779.425,0.00
8.417,2775.519,0.00
8.433,2772.346,0.00
8.450,2769.505,0.00
8.467,2767.233,0.00
8.483,2765.792,0.00
8.500,2763.796,0.00
8.517,2761.309,0.00
8.533,2759.033,0.00
8.550,2757.541,0.00
8.567,2757.356,0.00
8.583,2757.430,0.00
8.600,2756.929,0.00
8.617,2755.601,0.00
8.633,2754.145,0.00
8.650,2753.943,0.00
8.667,2753.942,0.00
8.683,2753.300,0.00
8.700,2751.776,0.00
8.717,2749.177,0.00
8.733,2745.957,0.00
8.750,2743.103,0.00
8.767,2740.240,0.00
8.783,2737.287,0.00
8.800,2733.403,0.00
8.817,2728.208,0.00
8.833,2723.067,0.00
8.850,2719.692,0.00
8.867,2716.578,0.00
8.883,2712.594,0.00
8.900,2708.153,0.00
8.917,2704.147,0.00
8.933,2699.997,0.00
8.950,2696.062,0.00
8.967,2692.408,0.00
8.983,2688.627,0.00
9.000,2685.318,0.00
9.017,2681.612,0.00
9.033,2677.134,0.00
9.050,2672.553,0.00
9.067,2668.443,0.00
9.083,2665.021,0.00
9.100,2661.814,0.00
9.117,2659.276,0.00
9.133,2657.209,0.00
9.150,2655.005,0.00
9.167,2651.555,0.00
9.183,2649.407,0.00
9.200,2648.031,0.00
9.217,2640.791,0.00
9.233,2635.408,0.00
9.250,2645.078,0.00
9.267,2684.532,0.00
9.283,2761.730,0.00
9.300,2856.767,0.00
9.317,2935.420,0.00
9.333,2975.315,0.00
9.350,2982.034,0.00
9.367,2972.883,0.00
9.383,2962.839,0.00
9.400,2960.484,0.00
9.417,2957.832,0.00
9.433,2950.444,0.00
9.450,2941.579,0.00
9.467,2931.944,0.00
9.483,2922.813,0.00
9.500,2914.590,0.00
9.517,2905.137,0.00
9.533,2893.152,0.00
9.550,2881.783,0.00
9.567,2874.131,0.00
9.583,2875.324,0.00
9.600,2888.530,0.00
9.617,2905.791,0.00
9.633,2910.935,0.00
9.650,2899.505,0.00
9.667,2874.945,0.00
9.683,2844.574,0.00
9.700,2828.105,0.00
9.717,2839.435,0.00
9.733,2884.695,0.00
9.750,2962.945,0.00
9.767,3058.349,0.00
9.783,3116.624,0.00
9.800,3147.981,0.00
9.817,3198.619,0.00
9.833,3224.714,0.00
9.850,3146.843,0.00
9.867,2868.594,0.00
9.883,2382.408,0.00
9.900,1809.768,0.00
9.917,1294.674,0.00
9.933,906.553,0.00
9.950,608.049,0.00
9.967,388.540,0.00
9.983,240.738,0.00
10.000,142.567,0.00
10.017,91.887,0.00
10.033,50.250,0.00
10.050,14.992,0.00
10.067,-4.614,0.00
10.083,-11.579,0.00
10.100,-11.147,0.00
10.117,-9.587,0.00
10.133,-7.974,0.00
10.150,-6.241,0.00
10.167,-4.841,0.00
10.183,-3.868,0.00
10.200,-3.253,0.00
10.217,-2.770,0.00
10.233,-2.232,0.00
10.250,-1.671,0.00
10.267,-1.190,0.00
10.283,-0.900,0.00
10.300,-0.945,0.00
10.317,-1.073,0.00
10.333,-1.035,0.00
10.350,-0.835,0.00
10.367,-0.629,0.00
10.383,-0.493,0.00
10.400,-0.340,0.00
10.417,-0.002,0.00
10.433,0.333,0.00
10.450,0.381,0.00
10.467,-0.074,0.00
10.483,-0.727,0.00
10.500,-1.218,0.00
10.517,-1.381,0.00
10.533,-1.333,0.00
10.550,-1.353,0.00
10.567,-1.383,0.00
10.583,-1.335,0.00
10.600,-1.269,0.00
10.617,-1.225,0.00
10.633,-1.177,0.00
10.650,-1.135,0.00
10.667,-1.057,0.00
10.683,-0.991,0.00
10.700,-1.036,0.00
10.717,-1.063,0.00
10.733,-1.044,0.00
10.750,-0.993,0.00
10.767,-0.973,0.00
10.783,-0.963,0.00
10.800,-0.928,0.00
10.817,-0.845,0.00
10.833,-0.662,0.00
10.850,-0.446,0.00
10.867,-0.279,0.00
10.883,-0.164,0.00
10.900,-0.130,0.00
10.917,-0.171,0.00
10.933,-0.279,0.00
10.950,-0.302,0.00
10.967,-0.286,0.00
10.983,-0.231,0.00
11.000,-0.143,0.00
11.017,-0.004,0.00
11.033,0.099,0.00
11.050,0.180,0.00
11.067,0.273,0.00
11.083,0.319,0.00
11.100,0.273,0.00
11.117,0.366,0.00
11.133,0.494,0.00
11.150,0.630,0.00
11.167,0.690,0.00
11.183,0.663,0.00
11.200,0.614,0.00
11.217,0.676,0.00
11.233,0.847,0.00
11.250,0.941,0.00
11.267,0.975,0.00
11.283,1.039,0.00
11.300,1.043,0.00
11.317,1.062,0.00
11.333,1.009,0.00
11.350,0.864,0.00
11.367,0.745,0.00
11.383,0.687,0.00
11.400,0.698,0.00
11.417,0.704,0.00
11.433,0.817,0.00
11.450,0.944,0.00
11.467,1.264,0.00
11.483,2.038,0.00
11.500,2.810,0.00
11.517,2.838,0.00
11.533,1.906,0.00
11.550,0.464,0.00
11.567,-0.707,0.00
11.583,-1.152,0.00
11.600,-1.077,0.00
11.617,-1.072,0.00
11.633,-1.294,0.00
11.650,-1.366,0.00
11.667,-1.255,0.00
11.683,-1.020,0.00
11.700,-0.914,0.00
11.717,-0.902,0.00
11.733,-0.977,0.00
11.750,-1.072,0.00
11.767,-1.030,0.00
11.783,-0.938,0.00
11.800,-0.801,0.00
11.817,-0.682,0.00
11.833,-0.700,0.00
11.850,-0.770,0.00
11.867,-0.866,0.00
11.883,-0.954,0.00
11.900,-1.013,0.00
11.917,-1.255,0.00
11.933,-1.325,0.00
11.950,-1.291,0.00
11.967,-1.089,0.00
11.983,-0.872,0.00
12.000,-0.866,0.00
12.017,-1.011,0.00
12.033,-1.230,0.00
12.050,-1.289,0.00
12.067,-1.211,0.00
12.083,-1.278,0.00
12.100,-0.312,0.00
12.117,3.909,0.00
12.133,7.214,0.00
12.150,-4.525,0.00
12.167,9.353,0.00
12.183,185.014,0.00
12.200,591.166,0.00
12.217,1050.125,0.00
12.233,1262.673,0.00
12.250,1077.981,0.00
12.267,623.384,0.00
12.283,192.252,0.00
12.300,-8.403,0.00
12.317,-17.057,0.00
12.333,8.698,0.00
12.350,5.316,1.42
12.367,-1.303,1.44
12.383,-1.782,1.45
12.400,-1.474,1.47
12.417,-1.264,1.49
12.433,-1.055,1.51
12.450,-0.795,1.53
12.467,-0.603,1.55
12.483,-0.569,1.56
12.500,-0.731,1.58
12.517,-1.044,1.60
12.533,-1.274,1.62
12.550,-1.314,1.64
12.567,-1.301,1.66
12.583,-1.239,1.68
12.600,-1.117,1.70
12.617,-1.108,1.72
12.633,-1.179,1.74
12.650,-1.255,1.76
12.667,-1.321,1.78
12.683,-1.307,1.80
12.700,-1.229,1.83
12.717,-1.118,1.85
12.733,-1.125,1.87
12.750,-1.163,1.89
12.767,-1.207,1.91
12.783,-1.180,1.93
12.800,-1.125,1.96
12.817,-1.089,1.98
12.833,-1.164,2.00
12.850,-1.168,2.02
12.867,-1.191,2.05
12.883,-1.210,2.07
12.900,-1.164,2.09
12.917,-1.070,2.12
12.933,-0.933,2.14
12.950,-0.850,2.16
12.967,-0.821,2.19
12.983,-0.819,2.21
13.000,-0.854,2.24
13.017,-0.783,2.26
13.033,-0.703,2.29
13.050,-0.673,2.31
13.067,-0.539,2.34
13.083,-0.450,2.36
13.100,-0.349,2.39
13.117,-0.320,2.41
13.133,-0.228,2.44
13.150,-0.190,2.47
13.167,-0.244,2.49
13.183,-0.295,2.52
13.200,-0.468,2.55
13.217,-0.459,2.57
13.233,-0.293,2.60
13.250,-0.232,2.63
13.267,-0.158,2.66
13.283,-0.097,2.68
13.300,-0.117,2.71
13.317,-0.215,2.74
13.333,-0.262,2.77
13.350,-0.258,2.80
13.367,-0.347,2.83
13.383,-0.345,2.86
13.400,-0.316,2.88
13.417,-0.299,2.91
13.433,-0.128,2.94
13.450,0.135,2.97
13.467,0.361,3.00
13.483,0.439,3.03
13.500,0.380,3.06
13.517,0.191,3.10
13.533,0.049,3.13
13.550,-0.047,3.16
13.567,0.047,3.19
13.583,0.088,3.22
13.600,0.112,3.25
13.617,0.119,3.29
13.633,0.011,3.32
13.650,-0.159,3.35
13.667,-0.261,3.38
13.683,-0.288,3.42
13.700,-0.174,3.45
13.717,-0.079,3.48
13.733,-0.011,3.52
13.750,0.029,3.55
13.767,0.099,3.59
13.783,0.175,3.62
13.800,0.158,3.65
13.817,0.011,3.69
13.833,-0.199,3.72
13.850,-0.070,3.76
13.867,0.276,3.80
13.883,0.533,3.83
13.900,0.526,3.87
13.917,0.352,3.90
13.933,0.118,3.94
13.950,0.026,3.98
13.967,0.180,4.01
13.983,0.450,4.05
14.000,0.632,4.09
14.017,0.770,4.13
14.033,0.707,4.16
14.050,0.488,4.20
14.067,0.202,4.24
14.083,0.079,4.28
14.100,0.153,4.32
14.117,0.251,4.36
14.133,0.249,4.40
14.150,0.162,4.44
14.167,-0.059,4.48
14.183,-0.226,4.52
14.200,-0.297,4.56
14.217,-0.259,4.60
14.233,-0.279,4.64
14.250,-0.325,4.68
14.267,-0.328,4.72
14.283,-0.283,4.76
14.300,-0.175,4.81
14.317,-0.057,4.85
14.333,-0.043,4.89
14.350,-0.101,4.93
14.367,-0.152,4.98
14.383,-0.142,5.02
14.400,-0.116,5.06
14.417,-0.108,5.11
14.433,-0.135,5.15
14.450,-0.251,5.19
14.467,-0.375,5.24
14.483,-0.414,5.28
14.500,-0.384,5.33
14.517,-0.281,5.37
14.533,-0.176,5.42
14.550,-0.225,5.46
14.567,-0.288,5.51
14.583,-0.130,5.56
14.600,0.480,5.60
14.617,1.333,5.65
14.633,1.971,5.70
14.650,2.081,5.74
14.667,1.650,5.79
14.683,1.028,5.84
14.700,0.563,5.89
14.717,0.305,5.94
14.733,0.177,5.98
14.750,0.140,6.03
14.767,0.156,6.08
14.783,0.147,6.13
14.800,0.058,6.18
14.817,-0.182,6.23
14.833,-0.594,6.28
14.850,-1.024,6.33
14.867,-1.252,6.38
14.883,-1.164,6.43
14.900,-0.802,6.49
14.917,-0.200,6.54
14.933,0.519,6.59
14.950,1.229,6.64
14.967,1.875,6.69
14.983,2.408,6.75
15.000,2.647,6.80
15.017,2.541,6.85
15.033,2.236,6.91
15.050,1.914,6.96
15.067,1.577,7.01
15.083,1.282,7.07
15.100,1.094,7.12
15.117,0.910,7.18
15.133,0.801,7.23
15.150,0.860,7.29
15.167,1.007,7.34
15.183,1.176,7.40
15.200,1.373,7.46
15.217,1.776,7.51
15.233,2.399,7.57
15.250,3.010,7.63
15.267,3.335,7.68
15.283,3.163,7.74
15.300,2.638,7.80
15.317,2.107,7.86
15.333,1.988,7.92
15.350,2.283,7.98
15.367,2.752,8.04
15.383,3.234,8.09
15.400,3.591,8.15
15.417,3.817,8.21
15.433,4.118,8.27
15.450,4.659,8.34
15.467,6.040,8.40
15.483,8.288,8.46
15.500,11.223,8.52
15.517,16.434,8.58
15.533,25.332,8.64
15.550,35.501,8.71
15.567,41.610,8.77
15.583,39.584,8.83
15.600,29.891,8.89
15.617,17.426,8.96
15.633,8.013,9.02
15.650,3.157,9.09
15.667,0.675,9.15
15.683,-0.777,9.21
15.700,-1.122,9.28
15.717,-0.438,9.34
15.733,0.821,9.41
15.750,2.095,9.48
15.767,3.098,9.54
15.783,4.124,9.61
15.800,5.448,9.68
15.817,6.561,9.74
15.833,6.703,9.81
15.850,5.699,9.88
15.867,4.289,9.95
15.883,3.352,10.01
15.900,3.292,10.08
15.917,3.674,10.15
15.933,3.665,10.22
15.950,2.981,10.29
15.967,2.104,10.36
15.983,1.543,10.43
16.000,1.699,10.50
16.017,2.351,10.57
16.033,3.103,10.64
16.050,3.935,10.71
16.067,5.174,10.78
16.083,6.964,10.86
16.100,9.033,10.93
16.117,10.642,11.00
16.133,11.469,11.07
16.150,11.983,11.15
16.167,13.242,11.22
16.183,15.845,11.29
16.200,19.543,11.37
16.217,23.885,11.44
16.233,28.740,11.52
16.250,34.785,11.59
16.267,43.100,11.67
16.283,52.645,11.74
16.300,59.539,11.82
16.317,59.325,11.90
16.333,50.826,11.97
16.350,37.435,12.05
16.367,24.431,12.13
16.383,15.198,12.20
16.400,9.726,12.28
16.417,6.278,12.36
16.433,4.132,12.44
16.450,3.596,12.52
16.467,4.792,12.59
16.483,7.187,12.67
16.500,10.266,12.75
16.517,13.522,12.83
16.533,16.463,12.91
16.550,18.220,12.99
16.567,18.355,13.08
16.583,16.914,13.16
16.600,14.773,13.24
16.617,12.747,13.32
16.633,11.386,13.40
16.650,11.010,13.48
16.667,12.105,13.57
16.683,14.657,13.65
16.700,18.365,13.73
16.717,22.555,13.82
16.733,26.673,13.90
16.750,30.700,13.99
16.767,34.321,14.07
16.783,36.060,14.15
16.800,34.269,14.24
16.817,28.764,14.33
16.833,21.606,14.41
16.850,15.723,14.50
16.867,13.001,14.58
16.883,13.028,14.67
16.900,14.308,14.76
16.917,16.044,14.85
16.933,17.812,14.93
16.950,19.326,15.02
16.967,20.035,15.11
16.983,19.767,15.20
17.000,18.965,15.29
17.017,18.365,15.38
17.033,18.119,15.47
17.050,18.256,15.56
17.067,18.517,15.65
17.083,18.639,15.74
17.100,19.365,15.83
17.117,21.110,15.92
17.133,23.329,16.01
17.150,24.928,16.10
17.167,25.551,16.20
17.183,25.283,16.29
17.200,24.948,16.38
17.217,25.457,16.47
17.233,28.274,16.57
17.250,36.963,16.66
17.267,59.305,16.76
17.283,100.320,16.85
17.300,152.918,16.95
17.317,201.345,17.04
17.333,226.160,17.14
17.350,215.419,17.23
17.367,175.101,17.33
17.383,124.030,17.42
17.400,81.400,17.52
17.417,55.155,17.62
17.433,43.414,17.72
17.450,38.676,17.81
17.467,34.199,17.91
17.483,30.923,18.01
17.500,29.831,18.11
17.517,30.585,18.21
17.533,31.824,18.31
17.550,32.028,18.41
17.567,31.016,18.51
17.583,30.630,18.61
17.600,34.066,18.71
17.617,42.508,18.81
17.633,52.860,18.91
17.650,59.061,19.01
17.667,56.913,19.11
17.683,47.654,19.22
17.700,35.949,19.32
17.717,28.405,19.42
17.733,26.944,19.53
17.750,30.183,19.63
17.767,35.130,19.73
17.783,40.120,19.84
17.800,45.130,19.94
17.817,50.638,20.05
17.833,56.902,20.15
17.850,63.388,20.26
17.867,69.203,20.36
17.883,74.373,20.47
17.900,76.836,20.58
17.917,74.258,20.68
17.933,65.474,20.79
17.950,52.877,20.90
17.967,40.981,21.00
17.983,33.498,21.11
18.000,31.749,21.22
18.017,34.784,21.33
18.033,41.948,21.44
18.050,52.195,21.55
18.067,63.112,21.66
18.083,71.320,21.77
18.100,77.314,21.88
18.117,87.019,21.99
18.133,106.351,22.10
18.150,132.888,22.21
18.167,155.770,22.32
18.183,162.039,22.44
18.200,145.906,22.55
18.217,161.492,22.66
18.233,290.778,22.77
18.250,567.072,22.89
18.267,915.306,23.00
18.283,1173.722,23.12
18.300,1210.072,23.23
18.317,1023.308,23.34
18.333,751.231,23.46
18.350,572.771,23.57
18.367,592.534,23.69
18.383,805.664,23.81
18.400,1097.375,23.92
18.417,1314.982,24.04
18.433,1361.722,24.16
18.450,1264.993,24.27
18.467,1162.180,24.39
18.483,1183.399,24.51
18.500,1334.486,24.63
18.517,1503.412,24.75
18.533,1559.864,24.86
18.550,1446.990,24.98
18.567,1203.745,25.10
18.583,912.438,25.22
18.600,642.165,25.34
18.617,428.913,25.46
18.633,284.014,25.59
18.650,202.651,25.71
18.667,165.656,25.83
18.683,155.691,25.95
18.700,162.688,26.07
18.717,181.049,26.19
18.733,203.722,26.32
18.750,220.005,26.44
18.767,218.324,26.56
18.783,195.927,26.69
18.800,159.830,26.81
18.817,122.298,26.94
18.833,94.545,27.06
18.850,80.668,27.19
18.867,77.362,27.31
18.883,78.979,27.44
18.900,80.659,27.56
18.917,80.208,27.69
18.933,76.968,27.82
18.950,73.402,27.94
18.967,71.716,28.07
18.983,72.893,28.20
19.000,76.852,28.33
19.017,82.248,28.46
19.033,87.425,28.58
19.050,90.699,28.71
19.067,91.182,28.84
19.083,88.678,28.97
19.100,84.130,29.10
19.117,78.780,29.23
19.133,74.163,29.36
19.150,71.082,29.49
19.167,69.305,29.63
19.183,67.751,29.76
19.200,65.928,29.89
19.217,63.381,30.02
19.233,60.422,30.15
19.250,57.669,30.29
19.267,56.692,30.42
19.283,58.208,30.55
19.300,62.701,30.69
19.317,69.244,30.82
19.333,75.626,30.96
19.350,79.922,31.09
19.367,81.419,31.23
19.383,80.501,31.36
19.400,78.677,31.50
19.417,77.476,31.63
19.433,77.269,31.77
19.450,77.608,31.91
19.467,78.109,32.04
19.483,79.236,32.18
19.500,81.726,32.32
19.517,86.096,32.46
19.533,91.824,32.60
19.550,97.326,32.73
19.567,101.354,32.87
19.583,104.102,33.01
19.600,106.823,33.15
19.617,111.403,33.29
19.633,118.498,33.43
19.650,126.512,33.57
19.667,133.230,33.71
19.683,137.924,33.86
19.700,141.564,34.00
19.717,145.171,34.14
19.733,147.591,34.28
19.750,146.434,34.42
19.767,140.165,34.57
19.783,130.269,34.71
19.800,120.908,34.85
19.817,116.019,35.00
19.833,118.260,35.14
19.850,127.998,35.29
19.867,145.026,35.43
19.883,170.050,35.58
19.900,203.746,35.72
19.917,244.356,35.87
19.933,293.307,36.01
19.950,380.301,36.16
19.967,560.064,36.31
19.983,855.620,36.45
20.000,1218.797,36.60
20.017,1551.619,36.75
20.033,1768.203,36.90
20.050,1847.813,37.05
20.067,1826.825,37.19
20.083,1745.212,37.34
20.100,1615.608,37.49
20.117,1442.123,37.64
20.133,1241.439,37.79
20.150,1035.257,37.94
20.167,840.153,38.09
20.183,664.796,38.24
20.200,513.765,38.39
20.217,392.080,38.55
20.233,300.081,38.70
20.250,233.475,38.85
20.267,186.269,39.00
20.283,151.860,39.15
20.300,125.806,39.31
20.317,106.130,39.46
20.333,91.719,39.61
20.350,81.620,39.77
20.367,74.712,39.92
20.383,69.944,40.08
20.400,66.997,40.23
20.417,66.429,40.39
20.433,68.483,40.54
20.450,74.222,40.70
20.467,87.318,40.86
20.483,115.191,41.01
20.500,169.866,41.17
20.517,267.536,41.33
20.533,426.287,41.48
20.550,657.499,41.64
20.567,954.177,41.80
20.583,1293.283,41.96
20.600,1641.635,42.12
20.617,1955.866,42.28
20.633,2190.957,42.43
20.650,2308.909,42.59
20.667,2284.493,42.75
20.683,2117.155,42.91
20.700,1838.678,43.07
20.717,1500.360,43.24
20.733,1153.714,43.40
20.750,841.987,43.56
20.767,591.992,43.72
20.783,412.003,43.88
20.800,299.293,44.04
20.817,227.310,44.21
20.833,181.479,44.37
20.850,223.236,44.53
20.867,440.003,44.70
20.883,845.144,44.86
20.900,1348.523,45.03
20.917,1808.360,45.19
20.933,2119.142,45.35
20.950,2268.438,45.52
20.967,2306.011,45.69
20.983,2259.607,45.85
21.000,2132.462,46.02
21.017,1946.864,46.18
21.033,1733.442,46.35
21.050,1513.046,46.52
21.067,1296.503,46.68
21.083,1089.624,46.85
21.100,896.124,47.02
21.117,718.702,47.19
21.133,563.541,47.36
21.150,437.283,47.53
21.167,340.543,47.69
21.183,269.577,47.86
21.200,219.906,48.03
21.217,186.959,48.20
21.233,168.526,48.37
21.250,165.441,48.54
21.267,178.976,48.72
21.283,211.565,48.89
21.300,268.011,49.06
21.317,345.094,49.23
21.333,429.181,49.40
21.350,503.037,49.57
21.367,554.238,49.75
21.383,580.898,49.92
21.400,589.665,50.09
21.417,587.026,50.27
21.433,574.135,50.44
21.450,550.019,50.61
21.467,515.188,50.79
21.483,474.064,50.96
21.500,433.504,51.14
21.517,399.261,51.31
21.533,373.743,51.49
21.550,356.230,51.67
21.567,345.008,51.84
21.583,337.388,52.02
21.600,330.849,52.20
21.617,323.993,52.37
21.633,314.935,52.55
21.650,301.851,52.73
21.667,283.261,52.91
21.683,259.454,53.08
21.700,231.717,53.26
21.717,202.345,53.44
21.733,174.560,53.62
21.750,150.984,53.80
21.767,133.490,53.98
21.783,122.317,54.16
21.800,116.353,54.34
21.817,113.773,54.52
21.833,112.539,54.70
21.850,111.239,54.88
21.867,109.171,55.07
21.883,106.217,55.25
21.900,102.097,55.43
21.917,96.928,55.61
21.933,91.519,55.80
21.950,86.915,55.98
21.967,84.626,56.16
21.983,85.775,56.35
22.000,91.101,56.53
22.017,100.994,56.71
22.033,116.054,56.90
22.050,141.169,57.08
22.067,193.587,57.27
22.083,297.369,57.45
22.100,460.312,57.64
22.117,660.021,57.82
22.133,856.716,58.01
22.150,1024.048,58.20
22.167,1165.067,58.38
22.183,1298.078,58.57
22.200,1427.070,58.76
22.217,1526.729,58.95
22.233,1566.992,59.13
22.250,1536.468,59.32
22.267,1447.258,59.51
22.283,1320.885,59.70
22.300,1176.760,59.89
22.317,1026.893,60.08
22.333,877.012,60.27
22.350,731.387,60.46
22.367,594.043,60.65
22.383,467.632,60.84
22.400,357.218,61.03
22.417,267.069,61.22
22.433,199.416,61.41
22.450,151.894,61.60
22.467,120.583,61.79
22.483,100.360,61.99
22.500,87.839,62.18
22.517,81.760,62.37
22.533,81.484,62.56
22.550,87.722,62.76
22.567,100.858,62.95
22.583,119.846,63.14
22.600,142.864,63.34
22.617,166.223,63.53
22.633,186.745,63.73
22.650,204.617,63.92
22.667,222.630,64.12
22.683,246.792,64.31
22.700,284.016,64.51
22.717,340.371,64.70
22.733,414.322,64.90
22.750,499.961,65.10
22.767,587.050,65.29
22.783,664.757,65.49
22.800,727.866,65.69
22.817,779.631,65.89
22.833,827.085,66.08
22.850,872.199,66.28
22.867,910.125,66.48
22.883,929.150,66.68
22.900,919.711,66.88
22.917,881.875,67.08
22.933,821.570,67.28
22.950,748.429,67.48
22.967,668.705,67.68
22.983,586.762,67.88
23.000,506.028,68.08
23.017,428.866,68.28
23.033,358.371,68.48
23.050,295.976,68.68
23.067,244.195,68.88
23.083,204.421,69.09
23.100,176.285,69.29
23.117,158.531,69.49
23.133,147.779,69.69
23.150,141.343,69.90
23.167,136.422,70.10
23.183,131.999,70.30
23.200,127.223,70.51
23.217,121.818,70.71
23.233,115.609,70.92
23.250,109.011,71.12
23.267,100.996,71.33
23.283,91.293,71.53
23.300,80.065,71.74
23.317,68.538,71.94
23.333,58.000,72.15
23.350,49.791,72.35
23.367,44.006,72.56
23.383,40.445,72.77
23.400,38.668,72.97
23.417,37.965,73.18
23.433,37.791,73.39
23.450,38.097,73.60
23.467,39.020,73.81
23.483,40.261,74.01
23.500,41.762,74.22
23.517,43.313,74.43
23.533,44.731,74.64
23.550,46.249,74.85
23.567,47.558,75.06
23.583,48.328,75.27
23.600,48.862,75.48
23.617,49.227,75.69
23.633,49.376,75.90
23.650,48.965,76.11
23.667,48.580,76.32
23.683,48.377,76.53
23.700,48.497,76.75
23.717,49.573,76.96
23.733,52.497,77.17
23.750,57.943,77.38
23.767,66.188,77.59
23.783,76.792,77.81
23.800,88.202,78.02
23.817,99.330,78.23
23.833,109.428,78.45
23.850,117.077,78.66
23.867,121.844,78.88
23.883,123.231,79.09
23.900,121.635,79.31
23.917,116.991,79.52
23.933,109.380,79.74
23.950,99.232,79.95
23.967,86.804,80.17
23.983,73.701,80.38
24.000,60.941,80.60
24.017,49.374,80.82
24.033,39.687,81.03
24.050,31.543,81.25
24.067,24.970,81.47
24.083,19.837,81.68
24.100,16.082,81.90
24.117,13.345,82.12
24.133,11.240,82.34
24.150,9.884,82.56
24.167,8.973,82.77
24.183,8.352,82.99
24.200,7.865,83.21
24.217,7.363,83.43
24.233,7.045,83.65
24.250,6.793,83.87
24.267,6.852,84.09
24.283,7.188,84.31
24.300,7.496,84.53
24.317,7.974,84.75
24.333,8.714,84.98
24.350,9.770,85.20
24.367,11.062,85.42
24.383,12.429,85.64
24.400,13.600,85.86
24.417,14.421,86.08
24.433,15.311,86.31
24.450,16.203,86.53
24.467,16.927,86.75
24.483,17.458,86.98
24.500,17.748,87.20
24.517,17.734,87.42
24.533,17.662,87.65
24.550,17.929,87.87
24.567,18.726,88.10
24.583,20.151,88.32
24.600,21.974,88.55
24.617,23.950,88.77
24.633,26.023,89.00
24.650,27.817,89.22
24.667,29.224,89.45
24.683,30.162,89.67
24.700,30.571,89.90
24.717,30.553,90.13
24.733,29.843,90.35
24.750,28.493,90.58
24.767,26.363,90.81
24.783,23.741,91.04
24.800,20.896,91.26
24.817,18.061,91.49
24.833,15.464,91.72
24.850,13.069,91.95
24.867,11.014,92.18
24.883,9.143,92.41
24.900,7.581,92.64
24.917,6.479,92.87
24.933,5.640,93.09
24.950,4.953,93.32
24.967,4.295,93.55
24.983,3.788,93.78
25.000,3.458,94.02
25.017,3.419,94.25
25.033,3.657,94.48
25.050,3.709,94.71
25.067,3.736,94.94
25.083,3.680,95.17
25.100,3.751,95.40
25.117,3.991,95.64
25.133,4.343,95.87
25.150,4.723,96.10
25.167,5.239,96.33
25.183,5.946,96.57
25.200,7.023,96.80
25.217,8.668,97.03
25.233,11.169,97.27
25.250,14.796,97.50
25.267,19.656,97.74
25.283,26.459,97.97
25.300,36.128,98.20
25.317,50.342,98.44
25.333,71.081,98.67
25.350,99.511,98.91
25.367,135.117,99.14
25.383,174.247,99.38
25.400,212.015,99.62
25.417,243.106,99.85
25.433,263.125,100.09
25.450,272.146,100.33
25.467,273.088,100.56
25.483,270.477,100.80
25.500,266.926,101.04
25.517,262.456,101.27
25.533,255.064,101.51
25.550,243.124,101.75
25.567,227.334,101.99
25.583,209.479,102.23
25.600,191.577,102.46
25.617,175.219,102.70
25.633,160.481,102.94
25.650,147.372,103.18
25.667,135.925,103.42
25.683,126.353,103.66
25.700,118.523,103.90
25.717,111.825,104.14
25.733,105.297,104.38
25.750,98.546,104.62
25.767,91.767,104.86
25.783,85.083,105.10
25.800,78.632,105.34
25.817,72.625,105.58
25.833,67.260,105.83
25.850,62.826,106.07
25.867,60.173,106.31
25.883,59.904,106.55
25.900,62.576,106.79
25.917,68.616,107.04
25.933,77.901,107.28
25.950,89.580,107.52
25.967,103.026,107.77
25.983,117.067,108.01
26.000,129.666,108.25
26.017,139.351,108.50
26.033,145.692,108.74
26.050,148.189,108.98
26.067,147.073,109.23
26.083,143.193,109.47
26.100,137.286,109.72
26.117,130.008,109.96
26.133,122.012,110.21
26.150,113.659,110.45
26.167,105.400,110.70
26.183,97.894,110.95
26.200,91.688,111.19
26.217,86.877,111.44
26.233,83.282,111.68
26.250,80.513,111.93
26.267,78.401,112.18
26.283,76.863,112.43
26.300,75.328,112.67
26.317,73.262,112.92
26.333,70.357,113.17
26.350,66.585,113.42
26.367,62.282,113.66
26.383,57.718,113.91
26.400,52.778,114.16
26.417,47.408,114.41
26.433,41.772,114.66
26.450,36.026,114.91
26.467,30.439,115.16
26.483,25.229,115.41
26.500,20.535,115.66
26.517,16.593,115.91
26.533,13.528,116.16
26.550,11.201,116.41
26.567,9.367,116.66
26.583,7.890,116.91
26.600,6.655,117.16
26.617,5.638,117.41
26.633,4.865,117.66
26.650,4.330,117.91
26.667,3.919,118.16
26.683,3.495,118.41
26.700,3.080,118.67
26.717,2.721,118.92
26.733,2.520,119.17
26.750,2.348,119.42
26.767,2.101,119.68
26.783,1.900,119.93
26.800,1.790,120.18
26.817,1.783,120.44
26.833,1.876,120.69
26.850,1.979,120.94
26.867,2.106,121.20
26.883,2.333,121.45
26.900,2.661,121.70
26.917,3.151,121.96
26.933,3.897,122.21
26.950,4.962,122.47
26.967,6.610,122.72
26.983,8.963,122.98
27.000,11.862,123.23
27.017,15.003,123.49
27.033,18.086,123.75
27.050,21.247,124.00
27.067,24.725,124.26
27.083,28.462,124.51
27.100,31.920,124.77
27.117,34.304,125.03
27.133,35.453,125.28
27.150,35.691,125.54
27.167,35.188,125.80
27.183,34.043,126.06
27.200,32.051,126.31
27.217,29.477,126.57
27.233,26.530,126.83
27.250,23.217,127.09
27.267,19.861,127.34
27.283,16.611,127.60
27.300,13.510,127.86
27.317,10.717,128.12
27.333,8.140,128.38
27.350,5.817,128.64
27.367,3.866,128.90
27.383,2.606,129.16
27.400,1.918,129.42
27.417,1.307,129.68
27.433,0.782,129.94
27.450,0.413,130.20
27.467,0.147,130.46
27.483,0.068,130.72
27.500,0.007,130.98
27.517,-0.150,131.24
27.533,-0.325,131.50
27.550,-0.402,131.76
27.567,-0.357,132.02
27.583,-0.397,132.29
27.600,-0.446,132.55
27.617,-0.423,132.81
27.633,-0.352,133.07
27.650,-0.384,133.33
27.667,-0.629,133.60
27.683,-0.901,133.86
27.700,-1.103,134.12
27.717,-1.166,134.39
27.733,-1.112,134.65
27.750,-1.202,134.91
27.767,-1.392,135.18
27.783,-1.592,135.44
27.800,-1.699,135.70
27.817,-1.743,135.97
27.833,-1.771,136.23
27.850,-1.734,136.50
27.867,-1.768,136.76
27.883,-1.619,137.03
27.900,-1.298,137.29
27.917,-0.852,137.56
27.933,-0.188,137.82
27.950,0.622,138.09
27.967,1.469,138.35
27.983,2.386,138.62
28.000,3.265,138.88
28.017,4.039,139.15
28.033,4.628,139.42
28.050,5.206,139.68
28.067,5.546,139.95
28.083,5.601,140.22
28.100,5.459,140.48
28.117,5.070,140.75
28.133,4.580,141.02
28.150,4.049,141.28
28.167,3.446,141.55
28.183,2.822,141.82
28.200,2.220,142.09
28.217,1.736,142.35
28.233,1.414,142.62
28.250,1.042,142.89
28.267,0.668,143.16
28.283,0.407,143.43
28.300,0.433,143.70
28.317,0.461,143.97
28.333,0.364,144.24
28.350,0.151,144.50
28.367,-0.096,144.77
28.383,-0.218,145.04
28.400,-0.202,145.31
28.417,-0.317,145.58
28.433,-0.444,145.85
28.450,-0.550,146.12
28.467,-0.541,146.39
28.483,-0.445,146.66
28.500,-0.465,146.94
28.517,-0.551,147.21
28.533,-0.657,147.48
28.550,-0.750,147.75
28.567,-0.802,148.02
28.583,-0.729,148.29
28.600,-0.514,148.56
28.617,-0.377,148.83
28.633,-0.288,149.11
28.650,-0.183,149.38
28.667,-0.111,149.65
28.683,-0.068,149.92
28.700,-0.138,150.20
28.717,-0.291,150.47
28.733,-0.452,150.74
28.750,-0.482,151.01
28.767,-0.471,151.29
28.783,-0.434,151.56
28.800,-0.469,151.83
28.817,-0.465,152.11
28.833,-0.454,152.38
28.850,-0.467,152.66
28.867,-0.523,152.93
28.883,-0.559,153.20
28.900,-0.565,153.48
28.917,-0.480,153.75
28.933,-0.405,154.03
28.950,-0.382,154.30
28.967,-0.494,154.58
28.983,-0.560,154.85
29.000,-0.583,155.13
29.017,-0.523,155.40
29.033,-0.431,155.68
29.050,-0.373,155.95
29.067,-0.381,156.23
29.083,-0.406,156.51
29.100,-0.435,156.78
29.117,-0.475,157.06
29.133,-0.468,157.33
29.150,-0.516,157.61
29.167,-0.545,157.89
29.183,-0.579,158.16
29.200,-0.532,158.44
29.217,-0.476,158.72
29.233,-0.367,159.00
29.250,-0.320,159.27
29.267,-0.475,159.55
29.283,-0.569,159.83
29.300,-0.427,160.11
29.317,-0.285,160.38
29.333,-0.187,160.66
29.350,-0.156,160.94
29.367,-0.205,161.22
29.383,-0.307,161.50
29.400,-0.330,161.77
29.417,-0.211,162.05
29.433,-0.156,162.33
29.450,0.045,162.61
29.467,0.099,162.89
29.483,-0.038,163.17
29.500,0.017,163.45
29.517,0.280,163.73
29.533,0.485,164.01
29.550,0.423,164.29
29.567,0.135,164.57
29.583,-0.269,164.85
29.600,-0.502,165.13
29.617,-0.458,165.41
29.633,-0.437,165.69
29.650,-0.363,165.97
29.667,-0.210,166.25
29.683,-0.019,166.53
29.700,0.047,166.81
29.717,0.071,167.09
29.733,0.125,167.38
29.750,0.160,167.66
29.767,0.196,167.94
29.783,0.223,168.22
29.800,0.393,168.50
29.817,0.590,168.78
29.833,0.729,169.07
29.850,0.883,169.35
29.867,0.811,169.63
29.883,0.641,169.91
29.900,0.508,170.20
29.917,0.511,170.48
29.933,0.513,170.76
29.950,0.502,171.04
29.967,0.485,171.33
29.983,0.383,171.61
30.000,0.221,171.89
30.017,0.094,172.18
30.033,-0.051,172.46
30.050,-0.088,172.75
30.067,-0.053,173.03
30.083,0.033,173.31
30.100,0.017,173.60
30.117,-0.107,173.88
30.133,-0.233,174.17
30.150,-0.216,174.45
30.167,-0.110,174.74
30.183,-0.104,175.02
30.200,-0.177,175.31
30.217,-0.157,175.59
30.233,-0.169,175.88
30.250,-0.046,176.16
30.267,0.188,176.45
30.283,0.360,176.73
30.300,0.395,177.02
30.317,0.418,177.30
30.333,0.393,177.59
30.350,0.326,177.87
30.367,0.314,178.16
30.383,0.363,178.45
30.400,0.341,178.73
30.417,0.077,179.02
30.433,0.182,179.31
30.450,0.813,179.59
30.467,1.680,179.88
30.483,2.122,180.17
30.500,1.854,180.45
30.517,1.065,180.74
30.533,0.279,181.03
30.550,-0.036,181.32
30.567,0.112,181.60
30.583,0.146,181.89
30.600,0.148,182.18
30.617,-0.022,182.47
30.633,-0.260,182.75
30.650,-0.455,183.04
30.667,-0.429,183.33
30.683,-0.267,183.62
30.700,-0.148,183.91
30.717,-0.105,184.20
30.733,-0.163,184.49
30.750,-0.165,184.77
30.767,-0.109,185.06
30.783,-0.103,185.35
30.800,-0.098,185.64
30.817,-0.197,185.93
30.833,-0.337,186.22
30.850,-0.408,186.51
30.867,-0.376,186.80
30.883,-0.306,187.09
30.900,-0.408,187.38
30.917,-0.446,187.67
30.933,-0.393,187.96
30.950,-0.305,188.25
30.967,-0.228,188.54
30.983,-0.274,188.83
31.000,-0.371,189.12
31.017,-0.378,189.41
31.033,-0.266,189.70
31.050,-0.274,189.99
31.067,-0.609,190.28
31.083,-0.166,190.57
31.100,1.002,190.86
31.117,2.118,191.16
31.133,2.430,191.45
31.150,1.809,191.74
31.167,0.754,192.03
31.183,0.143,192.32
31.200,0.313,192.61
31.217,0.594,192.91
31.233,0.394,193.20
31.250,0.171,193.49
31.267,-0.157,193.78
31.283,-0.300,194.07
31.300,-0.203,194.37
31.317,0.008,194.66
31.333,0.240,194.95
31.350,0.319,195.24
31.367,0.172,195.54
31.383,-0.045,195.83
31.400,-0.146,196.12
31.417,-0.133,196.42
31.433,-0.072,196.71
31.450,0.031,197.00
31.467,0.037,197.30
31.483,-0.035,197.59
31.500,-0.062,197.88
31.517,-0.066,198.18
31.533,-0.036,198.47
31.550,-0.030,198.77
31.567,-0.111,199.06
31.583,-0.136,199.35
31.600,-0.055,199.65
31.617,0.053,199.94
31.633,0.105,200.24
31.650,0.021,200.53
31.667,-0.136,200.83
31.683,-0.275,201.12
31.700,-0.331,201.42
31.717,-0.326,201.71
31.733,-0.344,202.01
31.750,-0.277,202.30
31.767,-0.201,202.60
31.783,-0.193,202.89
31.800,-0.162,203.19
31.817,-0.181,203.48
31.833,-0.268,203.78
31.850,-0.321,204.07
31.867,-0.223,204.37
31.883,0.014,204.67
31.900,0.227,204.96
31.917,0.314,205.26
31.933,0.193,205.55
31.950,-0.020,205.85
31.967,-0.125,206.15
31.983,-0.148,206.44
32.000,-0.143,206.74
32.017,-0.079,207.04
32.033,-0.079,207.33
32.050,-0.177,207.63
32.067,-0.211,207.93
32.083,-0.146,208.22
32.100,-0.020,208.52
32.117,0.014,208.82
32.133,-0.084,209.12
32.150,-0.178,209.41
32.167,-0.123,209.71
32.183,0.032,210.01
32.200,0.011,210.31
32.217,-0.160,210.60
32.233,-0.232,210.90
32.250,-0.100,211.20
32.267,0.200,211.50
32.283,0.418,211.79
32.300,0.438,212.09
32.317,0.304,212.39
32.333,0.152,212.69
32.350,0.103,212.99
32.367,0.076,213.29
32.383,0.118,213.59
32.400,0.254,213.88
32.417,0.363,214.18
32.433,0.377,214.48
32.450,0.275,214.78
32.467,0.137,215.08
32.483,0.041,215.38
32.500,-0.006,215.68
32.517,-0.038,215.98
32.533,-0.140,216.28
32.550,-0.164,216.58
32.567,-0.100,216.88
32.583,-0.019,217.18
32.600,0.012,217.48
32.617,-0.076,217.78
32.633,-0.183,218.08
32.650,-0.203,218.38
32.667,-0.171,218.68
32.683,-0.176,218.98
32.700,-0.182,219.28
32.717,-0.145,219.58
32.733,-0.091,219.88
32.750,-0.009,220.18
32.767,-0.019,220.48
32.783,-0.111,220.78
32.800,-0.122,221.08
32.817,-0.117,221.38
32.833,-0.095,221.68
32.850,-0.127,221.98
32.867,-0.172,222.28
32.883,-0.130,222.58
32.900,0.026,222.89
32.917,0.148,223.19
32.933,0.104,223.49
32.950,0.041,223.79
32.967,-0.005,224.09
32.983,-0.084,224.39
33.000,-0.118,224.69
33.017,-0.226,225.00
33.033,-0.340,225.30
33.050,-0.265,225.60
33.067,-0.121,225.90
33.083,-0.057,226.20
33.100,-0.052,226.51
33.117,-0.077,226.81
33.133,-0.070,227.11
33.150,-0.093,227.41
33.167,-0.091,227.72
33.183,-0.126,228.02
33.200,-0.202,228.32
33.217,-0.182,228.62
33.233,-0.153,228.93
33.250,-0.153,229.23
33.267,-0.180,229.53
33.283,-0.232,229.84
33.300,-0.161,230.14
33.317,-0.078,230.44
33.333,0.064,230.75
33.350,0.187,231.05
33.367,0.130,231.35
33.383,-0.041,231.66
33.400,-0.230,231.96
33.417,-0.341,232.26
33.433,-0.294,232.57
33.450,-0.200,232.87
33.467,-0.091,233.17
33.483,-0.113,233.48
33.500,-0.262,233.78
33.517,-0.265,234.09
33.533,-0.290,234.39
33.550,-0.360,234.69
33.567,-0.421,235.00
33.583,-0.339,235.30
33.600,-0.183,235.61
33.617,-0.043,235.91
33.633,0.006,236.22
33.650,-0.043,236.52
33.667,-0.198,236.82
33.683,-0.151,237.13
33.700,0.128,237.43
33.717,0.503,237.74
33.733,0.720,238.04
33.750,0.684,238.35
33.767,0.417,238.65
33.783,0.255,238.96
33.800,0.170,239.26
33.817,0.215,239.57
33.833,0.144,239.87
33.850,-0.049,240.18
33.867,-0.160,240.49
33.883,-0.059,240.79
33.900,0.005,241.10
33.917,-0.022,241.40
33.933,0.045,241.71
33.950,0.172,242.01
33.967,0.151,242.32
33.983,0.189,242.63
34.000,0.215,242.93
34.017,0.159,243.24
34.033,0.144,243.54
34.050,0.206,243.85
34.067,0.077,244.16
34.083,-0.088,244.46
34.100,-0.134,244.77
34.117,-0.192,245.08
34.133,-0.212,245.38
34.150,-0.082,245.69
34.167,0.011,246.00
34.183,0.014,246.30
34.200,0.009,246.61
34.217,-0.007,246.92
34.233,-0.038,247.22
34.250,-0.045,247.53
34.267,-0.074,247.84
34.283,-0.126,248.14
34.300,-0.118,248.45
34.317,-0.125,248.76
34.333,-0.193,249.06
34.350,-0.261,249.37
34.367,-0.109,249.68
34.383,-0.221,249.99
34.400,-0.248,250.29
34.417,-0.048,250.60
34.433,0.233,250.91
34.450,0.434,251.22
34.467,0.421,251.52
34.483,0.306,251.83
34.500,0.251,252.14
34.517,0.297,252.45
34.533,0.467,252.76
34.550,0.163,253.06
34.567,-0.084,253.37
34.583,-0.160,253.68
34.600,-0.067,253.99
34.617,0.048,254.30
34.633,-0.026,254.60
34.650,-0.131,254.91
34.667,-0.298,255.22
34.683,-0.354,255.53
34.700,-0.258,255.84
34.717,-0.218,256.15
34.733,-0.173,256.46
34.750,-0.172,256.76
34.767,-0.232,257.07
34.783,-0.196,257.38
34.800,-0.170,257.69
34.817,-0.114,258.00
34.833,-0.017,258.31
34.850,0.005,258.62
34.867,-0.088,258.93
34.883,-0.195,259.24
34.900,-0.138,259.54
34.917,0.063,259.85
34.933,-0.008,260.16
34.950,0.046,260.47
34.967,0.158,260.78
34.983,0.341,261.09
35.000,0.477,261.40
35.017,0.339,261.71
35.033,0.082,262.02
35.050,-0.158,262.33
35.067,-0.208,262.64
35.083,-0.134,262.95
35.100,-0.183,263.26
35.117,-0.056,263.57
35.133,-0.002,263.88
35.150,-0.010,264.19
35.167,-0.148,264.50
35.183,-0.166,264.81
35.200,-0.084,265.12
35.217,0.084,265.43
35.233,0.201,265.74
35.250,0.267,266.05
35.267,0.247,266.36
35.283,0.154,266.67
35.300,0.034,266.98
35.317,-0.014,267.29
35.333,0.049,267.60
35.350,0.112,267.91
35.367,0.155,268.22
35.383,0.081,268.53
35.400,-0.001,268.84
35.417,0.018,269.15
35.433,0.020,269.46
35.450,-0.012,269.77
35.467,-0.067,270.09
35.483,-0.123,270.40
35.500,-0.166,270.71
35.517,-0.181,271.02
35.533,-0.042,271.33
35.550,0.010,271.64
35.567,0.156,271.95
35.583,0.286,272.26
35.600,0.283,272.57
35.617,0.195,272.88
35.633,0.084,273.20
35.650,0.007,273.51
35.667,-0.014,273.82
35.683,0.068,274.13
35.700,0.099,274.44
35.717,-0.014,274.75
35.733,-0.153,275.06
35.750,-0.246,275.38
35.767,-0.230,275.69
35.783,-0.092,276.00
35.800,-0.025,276.31
35.817,-0.021,276.62
35.833,-0.068,276.93
35.850,-0.103,277.25
35.867,-0.022,277.56
35.883,0.136,277.87
35.900,0.185,278.18
35.917,0.090,278.49
35.933,-0.056,278.81
35.950,-0.092,279.12
35.967,-0.112,279.43
35.983,-0.127,279.74
36.000,-0.141,280.05
36.017,-0.194,280.37
36.033,-0.203,280.68
36.050,-0.164,280.99
36.067,-0.179,281.30
36.083,-0.220,281.62
36.100,-0.202,281.93
36.117,-0.125,282.24
36.133,-0.094,282.55
36.150,-0.163,282.87
36.167,-0.178,283.18
36.183,-0.098,283.49
36.200,0.072,283.80
36.217,0.146,284.12
36.233,0.104,284.43
36.250,-0.003,284.74
36.267,-0.076,285.05
36.283,0.060,285.37
36.300,0.403,285.68
36.317,0.647,285.99
36.333,0.689,286.31
36.350,0.547,286.62
36.367,0.271,286.93
36.383,0.001,287.25
36.400,-0.028,287.56
36.417,0.082,287.87
36.433,0.132,288.18
36.450,0.127,288.50
36.467,0.024,288.81
36.483,-0.088,289.12
36.500,-0.106,289.44
36.517,-0.082,289.75
36.533,-0.070,290.06
36.550,-0.032,290.38
36.567,0.080,290.69
36.583,0.274,291.00
36.600,0.380,291.32
36.617,0.233,291.63
36.633,-0.040,291.95
36.650,-0.228,292.26
36.667,-0.260,292.57
36.683,-0.110,292.89
36.700,0.063,293.20
36.717,0.075,293.51
36.733,-0.035,293.83
36.750,-0.162,294.14
36.767,-0.270,294.45
36.783,-0.354,294.77
36.800,-0.369,295.08
36.817,-0.247,295.40
36.833,-0.045,295.71
36.850,0.097,296.02
36.867,0.039,296.34
36.883,-0.128,296.65
36.900,-0.203,296.97
36.917,-0.102,297.28
36.933,0.053,297.59
36.950,0.127,297.91
36.967,0.104,298.22
36.983,0.140,298.54
37.000,0.138,298.85
37.017,0.031,299.17
37.033,-0.122,299.48
37.050,-0.288,299.79
37.067,-0.346,300.11
37.083,-0.274,300.42
37.100,-0.137,300.74
37.117,0.015,301.05
37.133,0.118,301.37
37.150,0.117,301.68
37.167,0.018,302.00
37.183,-0.006,302.31
37.200,0.172,302.62
37.217,0.399,302.94
37.233,0.518,303.25
37.250,0.485,303.57
37.267,0.363,303.88
37.283,0.178,304.20
37.300,0.086,304.51
37.317,0.062,304.83
37.333,0.014,305.14
37.350,-0.001,305.46
37.367,-0.017,305.77
37.383,-0.057,306.09
37.400,0.001,306.40
37.417,0.150,306.72
37.433,0.263,307.03
37.450,0.283,307.35
37.467,0.249,307.66
37.483,0.115,307.98
37.500,0.011,308.29
37.517,0.031,308.61
37.533,0.072,308.92
37.550,0.095,309.24
37.567,0.066,309.55
37.583,-0.037,309.87
37.600,-0.182,310.18
37.617,-0.269,310.50
37.633,-0.210,310.81
37.650,-0.108,311.13
37.667,-0.002,311.44
37.683,0.032,311.76
37.700,-0.038,312.07
37.717,-0.144,312.39
37.733,-0.196,312.70
37.750,-0.114,313.02
37.767,-0.010,313.34
37.783,0.025,313.65
37.800,0.023,313.97
37.817,-0.039,314.28
37.833,-0.128,314.60
37.850,-0.168,314.91
37.867,-0.167,315.23
37.883,-0.184,315.54
37.900,-0.209,315.86
37.917,-0.238,316.18
37.933,-0.259,316.49
37.950,-0.213,316.81
37.967,-0.040,317.12
37.983,0.148,317.44
38.000,0.204,317.75
38.017,0.171,318.07
38.033,0.100,318.38
38.050,0.011,318.70
38.067,-0.002,319.02
38.083,0.042,319.33
38.100,0.116,319.65
38.117,0.227,319.96
38.133,0.370,320.28
38.150,0.498,320.60
38.167,0.557,320.91
38.183,0.494,321.23
38.200,0.348,321.54
38.217,0.153,321.86
38.233,0.162,322.18
38.250,-0.126,322.49
38.267,-0.381,322.81
38.283,0.109,323.12
38.300,0.966,323.44
38.317,1.570,323.76
38.333,1.441,324.07
38.350,0.697,324.39
38.367,-0.012,324.70
38.383,-0.160,325.02
38.400,0.257,325.34
38.417,0.273,325.65
38.433,0.046,325.97
38.450,-0.083,326.28
38.467,-0.158,326.60
38.483,-0.112,326.92
38.500,-0.134,327.23
38.517,-0.196,327.55
38.533,-0.192,327.87
38.550,-0.154,328.18
38.567,-0.044,328.50
38.583,0.077,328.81
38.600,0.073,329.13
38.617,-0.104,329.45
38.633,-0.334,329.76
38.650,-0.374,330.08
38.667,-0.236,330.40
38.683,-0.072,330.71
38.700,0.037,331.03
38.717,-0.001,331.34
38.733,-0.131,331.66
38.750,-0.270,331.98
38.767,-0.331,332.29
38.783,-0.363,332.61
38.800,-0.345,332.93
38.817,-0.265,333.24
38.833,-0.171,333.56
38.850,-0.022,333.88
38.867,0.036,334.19
38.883,0.010,334.51
38.900,0.020,334.83
38.917,0.075,335.14
38.933,0.154,335.46
38.950,0.262,335.78
38.967,0.058,336.09
38.983,-0.170,336.41
39.000,-0.248,336.73
39.017,0.008,337.04
39.033,0.390,337.36
39.050,0.631,337.67
39.067,0.543,337.99
39.083,0.130,338.31
39.100,-0.210,338.62
39.117,-0.282,338.94
39.133,-0.337,339.26
39.150,-0.124,339.57
39.167,-0.018,339.89
39.183,-0.036,340.21
39.200,-0.117,340.52
39.217,-0.168,340.84
39.233,-0.128,341.16
39.250,-0.125,341.48
39.267,-0.131,341.79
39.283,-0.104,342.11
39.300,-0.097,342.43
39.317,-0.050,342.74
39.333,-0.080,343.06
39.350,-0.181,343.38
39.367,-0.331,343.69
39.383,-0.390,344.01
39.400,-0.287,344.33
39.417,-0.261,344.64
39.433,-0.244,344.96
39.450,0.028,345.28
39.467,0.386,345.59
39.483,0.510,345.91
39.500,0.466,346.23
39.517,0.416,346.54
39.533,0.413,346.86
39.550,0.824,347.18
39.567,1.462,347.49
39.583,2.111,347.81
39.600,2.877,348.13
39.617,3.799,348.45
39.633,5.818,348.76
39.650,8.547,349.08
39.667,10.654,349.40
39.683,10.699,349.71
39.700,8.502,350.03
39.717,5.278,350.35
39.733,2.515,350.66
39.750,1.318,350.98
39.767,1.075,351.30
39.783,0.681,351.61
39.800,0.509,351.93
39.817,0.379,352.25
39.833,0.282,352.57
39.850,0.189,352.88
39.867,0.016,353.20
39.883,-0.165,353.52
39.900,-0.289,353.83
39.917,-0.397,354.15
39.933,-0.443,354.47
39.950,-0.528,354.78
39.967,-0.600,355.10
39.983,-0.584,355.42
40.000,-0.433,355.73
40.017,-0.269,356.05
40.033,-0.242,356.37
40.050,-0.236,356.69
40.067,-0.195,357.00
40.083,-0.189,357.32
40.100,-0.213,357.64
40.117,-0.265,357.95
40.133,-0.296,358.27
40.150,-0.314,358.59
40.167,-0.295,358.90
40.183,-0.220,359.22
40.200,-0.298,359.54
40.217,-0.348,359.86
40.233,-0.297,360.17
40.250,-0.185,360.49
40.267,-0.108,360.81
40.283,-0.228,361.12
40.300,-0.329,361.44
40.317,-0.176,361.76
40.333,-0.125,362.07
40.350,0.024,362.39
40.367,0.055,362.71
40.383,0.024,363.03
40.400,-0.001,363.34
40.417,0.046,363.66
40.433,0.040,363.98
40.450,-0.140,364.29
40.467,-0.148,364.61
40.483,-0.143,364.93
40.500,-0.271,365.25
40.517,-0.244,365.56
40.533,-0.243,365.88
40.550,-0.191,366.20
40.567,-0.149,366.51
40.583,-0.297,366.83
40.600,-0.488,367.15
40.617,-0.748,367.46
40.633,-0.766,367.78
40.650,-0.270,368.10
40.667,0.614,368.41
40.683,1.191,368.73
40.700,1.150,369.05
40.717,0.484,369.37
40.733,-0.228,369.68
40.750,-0.569,370.00
40.767,-0.452,370.32
40.783,-0.473,370.63
40.800,-0.692,370.95
40.817,-0.793,371.27
40.833,-0.792,371.58
40.850,-0.609,371.90
40.867,-0.369,372.22
40.883,-0.357,372.54
40.900,-0.444,372.85
40.917,-0.671,373.17
40.933,-0.813,373.49
40.950,-0.921,373.80
40.967,-0.897,374.12
40.983,-0.803,374.44
41.000,-0.743,374.75
41.017,-0.599,375.07
41.033,-0.552,375.39
41.050,-0.586,375.70
41.067,-0.587,376.02
41.083,-0.610,376.34
41.100,-0.587,376.66
41.117,-0.581,376.97
41.133,-0.559,377.29
41.150,-0.653,377.61
41.167,-0.725,377.92
41.183,-0.582,378.24
41.200,-0.405,378.56
41.217,-0.144,378.87
41.233,0.065,379.19
41.250,0.255,379.51
41.267,0.643,379.82
41.283,1.426,380.14
41.300,3.219,380.46
41.317,5.140,380.77
41.333,6.121,381.09
41.350,5.759,381.41
41.367,4.324,381.73
41.383,2.628,382.04
41.400,1.379,382.36
41.417,0.783,382.68
41.433,0.434,382.99
41.450,-0.004,383.31
41.467,-0.138,383.63
41.483,-0.332,383.94
41.500,-0.546,384.26
41.517,-0.659,384.58
