VERSION=1.3
ExportFileName=PM HZ 8_2025-05-14_13-24-16_labchip_PURE_Data_D4
SampleLabel=D4
SampleName=PM HZ 8
SampleComment=
SampleAreaConcRatio=0.012341
SampleLowerMarkerTime=12.25
SampleUpperMarkerTime=-1.00
SamplePeakTimes=12.25,15.28,15.63,16.37,16.83,17.38,17.70,17.95,18.37,18.50,18.60,18.82,18.97,19.12,19.43,19.80,20.15,20.75,21.08,21.50,22.35,23.00,23.32,23.72,23.98,24.60,24.82,25.58,25.85,26.17,27.25
SamplePeakSizes=1.298,7.611,8.867,11.915,14.160,17.120,18.981,20.532,23.277,24.198,24.902,26.468,27.584,28.725,31.221,34.254,37.292,42.819,46.061,50.282,59.459,66.969,70.777,75.721,79.098,87.149,90.056,100.647,104.440,109.012,125.195
SamplePeakQuantities=,,,3.6632,2.6569,21.1091,4.5474,10.2577,114.4582,111.7401,154.4893,26.9874,7.3389,22.0151,12.5554,48.5334,363.1296,409.0389,498.1755,226.0076,394.4867,308.4085,27.3306,18.5245,45.2653,4.9846,8.8920,113.5123,27.0105,95.0971,14.6228
PlateFileName=2025-05-14_13-24-16_labchip_PURE
PlateAssayName=HT Protein Express 200
PlateBarCode=N/A
WellAquisitionTime=5/14/2025 1:58:16 PM 
PlateDataFrequency=60
PlateDataStartTime=11.00
PlateDataEndTime=42.00
PlateConcUnits=ng/ul
PlateSizeUnits=kDa
PlateLadderSizes=1.40,15.90,20.40,28.90,48.40,68.40,119.20
ChipID=H296P-0563N-03
Operator=ACJS
DATA
Time,Value,Size
0.000,28.868,0.00
0.017,28.868,0.00
0.033,28.868,0.00
0.050,28.868,0.00
0.067,28.868,0.00
0.083,28.868,0.00
0.100,28.882,0.00
0.117,28.826,0.00
0.133,28.799,0.00
0.150,28.851,0.00
0.167,28.833,0.00
0.183,28.829,0.00
0.200,28.987,0.00
0.217,29.220,0.00
0.233,29.265,0.00
0.250,29.127,0.00
0.267,29.159,0.00
0.283,29.375,0.00
0.300,29.745,0.00
0.317,29.924,0.00
0.333,29.519,0.00
0.350,28.794,0.00
0.367,28.069,0.00
0.383,27.681,0.00
0.400,27.359,0.00
0.417,26.902,0.00
0.433,26.462,0.00
0.450,25.938,0.00
0.467,25.409,0.00
0.483,24.910,0.00
0.500,24.285,0.00
0.517,23.497,0.00
0.533,22.651,0.00
0.550,21.815,0.00
0.567,20.992,0.00
0.583,20.176,0.00
0.600,19.300,0.00
0.617,18.432,0.00
0.633,17.583,0.00
0.650,16.759,0.00
0.667,16.062,0.00
0.683,15.426,0.00
0.700,14.799,0.00
0.717,14.141,0.00
0.733,13.538,0.00
0.750,12.881,0.00
0.767,12.211,0.00
0.783,11.657,0.00
0.800,11.158,0.00
0.817,10.661,0.00
0.833,10.256,0.00
0.850,9.818,0.00
0.867,9.331,0.00
0.883,8.826,0.00
0.900,8.460,0.00
0.917,8.100,0.00
0.933,7.786,0.00
0.950,7.502,0.00
0.967,7.162,0.00
0.983,6.824,0.00
1.000,6.507,0.00
1.017,6.229,0.00
1.033,5.920,0.00
1.050,5.603,0.00
1.067,5.351,0.00
1.083,5.073,0.00
1.100,4.833,0.00
1.117,4.600,0.00
1.133,4.400,0.00
1.150,4.277,0.00
1.167,4.184,0.00
1.183,4.050,0.00
1.200,3.834,0.00
1.217,3.565,0.00
1.233,3.303,0.00
1.250,3.055,0.00
1.267,2.837,0.00
1.283,2.633,0.00
1.300,2.468,0.00
1.317,2.383,0.00
1.333,2.296,0.00
1.350,2.163,0.00
1.367,2.074,0.00
1.383,1.983,0.00
1.400,1.888,0.00
1.417,1.756,0.00
1.433,1.609,0.00
1.450,1.467,0.00
1.467,1.339,0.00
1.483,1.219,0.00
1.500,1.076,0.00
1.517,0.993,0.00
1.533,0.983,0.00
1.550,0.900,0.00
1.567,0.744,0.00
1.583,0.558,0.00
1.600,0.443,0.00
1.617,0.420,0.00
1.633,0.391,0.00
1.650,0.308,0.00
1.667,0.184,0.00
1.683,0.080,0.00
1.700,-0.041,0.00
1.717,-0.157,0.00
1.733,-0.217,0.00
1.750,-0.283,0.00
1.767,-0.330,0.00
1.783,-0.411,0.00
1.800,-0.530,0.00
1.817,-0.600,0.00
1.833,-0.639,0.00
1.850,-0.703,0.00
1.867,-0.831,0.00
1.883,-0.930,0.00
1.900,-0.978,0.00
1.917,-0.985,0.00
1.933,-0.980,0.00
1.950,-1.036,0.00
1.967,-1.120,0.00
1.983,-1.187,0.00
2.000,-1.249,0.00
2.017,-1.258,0.00
2.033,-1.229,0.00
2.050,-1.214,0.00
2.067,-1.265,0.00
2.083,-1.343,0.00
2.100,-1.432,0.00
2.117,-1.534,0.00
2.133,-1.637,0.00
2.150,-1.747,0.00
2.167,-1.860,0.00
2.183,-1.927,0.00
2.200,-1.990,0.00
2.217,-2.054,0.00
2.233,-2.078,0.00
2.250,-2.102,0.00
2.267,-2.164,0.00
2.283,-2.263,0.00
2.300,-2.380,0.00
2.317,-2.484,0.00
2.333,-2.519,0.00
2.350,-2.552,0.00
2.367,-2.627,0.00
2.383,-2.688,0.00
2.400,-2.686,0.00
2.417,-2.766,0.00
2.433,-2.898,0.00
2.450,-3.030,0.00
2.467,-3.155,0.00
2.483,-3.277,0.00
2.500,-3.337,0.00
2.517,-3.427,0.00
2.533,-3.473,0.00
2.550,-3.418,0.00
2.567,-3.322,0.00
2.583,-3.286,0.00
2.600,-3.288,0.00
2.617,-3.357,0.00
2.633,-3.362,0.00
2.650,-3.356,0.00
2.667,-3.364,0.00
2.683,-3.432,0.00
2.700,-3.506,0.00
2.717,-3.565,0.00
2.733,-3.655,0.00
2.750,-3.733,0.00
2.767,-3.832,0.00
2.783,-3.935,0.00
2.800,-3.936,0.00
2.817,-3.943,0.00
2.833,-3.978,0.00
2.850,-3.998,0.00
2.867,-4.014,0.00
2.883,-3.996,0.00
2.900,-3.993,0.00
2.917,-4.056,0.00
2.933,-4.137,0.00
2.950,-4.241,0.00
2.967,-4.310,0.00
2.983,-4.351,0.00
3.000,-4.443,0.00
3.017,-4.529,0.00
3.033,-4.616,0.00
3.050,-4.634,0.00
3.067,-4.587,0.00
3.083,-4.540,0.00
3.100,-4.536,0.00
3.117,-4.616,0.00
3.133,-4.726,0.00
3.150,-4.834,0.00
3.167,-4.900,0.00
3.183,-4.871,0.00
3.200,-4.926,0.00
3.217,-5.048,0.00
3.233,-5.165,0.00
3.250,-5.235,0.00
3.267,-5.269,0.00
3.283,-5.260,0.00
3.300,-5.236,0.00
3.317,-5.228,0.00
3.333,-5.255,0.00
3.350,-5.286,0.00
3.367,-5.390,0.00
3.383,-5.427,0.00
3.400,-5.427,0.00
3.417,-5.542,0.00
3.433,-5.903,0.00
3.450,-6.451,0.00
3.467,-7.055,0.00
3.483,-7.616,0.00
3.500,-8.053,0.00
3.517,-8.378,0.00
3.533,-8.649,0.00
3.550,-8.864,0.00
3.567,-9.082,0.00
3.583,-9.357,0.00
3.600,-9.571,0.00
3.617,-9.686,0.00
3.633,-9.788,0.00
3.650,-9.893,0.00
3.667,-9.945,0.00
3.683,-9.946,0.00
3.700,-9.900,0.00
3.717,-9.856,0.00
3.733,-9.854,0.00
3.750,-9.925,0.00
3.767,-9.996,0.00
3.783,-10.078,0.00
3.800,-10.147,0.00
3.817,-10.162,0.00
3.833,-10.130,0.00
3.850,-10.058,0.00
3.867,-9.986,0.00
3.883,-9.975,0.00
3.900,-9.979,0.00
3.917,-9.975,0.00
3.933,-10.002,0.00
3.950,-10.074,0.00
3.967,-10.131,0.00
3.983,-10.177,0.00
4.000,-10.186,0.00
4.017,-10.121,0.00
4.033,-10.063,0.00
4.050,-10.052,0.00
4.067,-10.054,0.00
4.083,-10.079,0.00
4.100,-10.130,0.00
4.117,-10.146,0.00
4.133,-10.111,0.00
4.150,-10.086,0.00
4.167,-10.084,0.00
4.183,-10.065,0.00
4.200,-10.037,0.00
4.217,-10.024,0.00
4.233,-10.042,0.00
4.250,-10.098,0.00
4.267,-10.121,0.00
4.283,-10.105,0.00
4.300,-10.118,0.00
4.317,-10.152,0.00
4.333,-10.191,0.00
4.350,-10.180,0.00
4.367,-10.113,0.00
4.383,-10.074,0.00
4.400,-10.118,0.00
4.417,-10.189,0.00
4.433,-10.224,0.00
4.450,-10.255,0.00
4.467,-10.297,0.00
4.483,-10.297,0.00
4.500,-10.256,0.00
4.517,-10.211,0.00
4.533,-10.113,0.00
4.550,-10.044,0.00
4.567,-10.021,0.00
4.583,-9.990,0.00
4.600,-9.933,0.00
4.617,-9.848,0.00
4.633,-9.766,0.00
4.650,-9.715,0.00
4.667,-9.713,0.00
4.683,-9.750,0.00
4.700,-9.692,0.00
4.717,-9.614,0.00
4.733,-9.547,0.00
4.750,-9.517,0.00
4.767,-9.502,0.00
4.783,-9.464,0.00
4.800,-9.365,0.00
4.817,-9.248,0.00
4.833,-9.167,0.00
4.850,-9.064,0.00
4.867,-8.881,0.00
4.883,-8.660,0.00
4.900,-8.362,0.00
4.917,-8.095,0.00
4.933,-7.898,0.00
4.950,-7.708,0.00
4.967,-7.462,0.00
4.983,-7.135,0.00
5.000,-6.810,0.00
5.017,-6.529,0.00
5.033,-6.337,0.00
5.050,-6.174,0.00
5.067,-5.921,0.00
5.083,-5.633,0.00
5.100,-5.292,0.00
5.117,-5.006,0.00
5.133,-4.769,0.00
5.150,-4.624,0.00
5.167,-4.472,0.00
5.183,-4.260,0.00
5.200,-4.045,0.00
5.217,-3.825,0.00
5.233,-3.700,0.00
5.250,-3.619,0.00
5.267,-3.485,0.00
5.283,-3.299,0.00
5.300,-3.132,0.00
5.317,-3.064,0.00
5.333,-3.001,0.00
5.350,-2.952,0.00
5.367,-2.915,0.00
5.383,-2.848,0.00
5.400,-2.834,0.00
5.417,-2.840,0.00
5.433,-2.797,0.00
5.450,-2.788,0.00
5.467,-2.699,0.00
5.483,-2.706,0.00
5.500,-2.928,0.00
5.517,-3.180,0.00
5.533,-3.339,0.00
5.550,-3.493,0.00
5.567,-3.723,0.00
5.583,-4.024,0.00
5.600,-4.354,0.00
5.617,-4.549,0.00
5.633,-4.289,0.00
5.650,-3.931,0.00
5.667,-3.593,0.00
5.683,-3.223,0.00
5.700,-2.851,0.00
5.717,-2.301,0.00
5.733,-1.737,0.00
5.750,-1.427,0.00
5.767,-1.513,0.00
5.783,-2.011,0.00
5.800,-2.628,0.00
5.817,-3.243,0.00
5.833,-3.648,0.00
5.850,-3.876,0.00
5.867,-3.968,0.00
5.883,-3.957,0.00
5.900,-4.009,0.00
5.917,-3.995,0.00
5.933,-3.906,0.00
5.950,-3.815,0.00
5.967,-3.725,0.00
5.983,-3.838,0.00
6.000,-3.854,0.00
6.017,-3.678,0.00
6.033,-3.404,0.00
6.050,-3.346,0.00
6.067,-3.572,0.00
6.083,-3.945,0.00
6.100,-4.272,0.00
6.117,-4.377,0.00
6.133,-4.423,0.00
6.150,-4.549,0.00
6.167,-4.611,0.00
6.183,-4.652,0.00
6.200,-4.679,0.00
6.217,-4.736,0.00
6.233,-4.815,0.00
6.250,-4.908,0.00
6.267,-4.951,0.00
6.283,-4.946,0.00
6.300,-4.960,0.00
6.317,-4.986,0.00
6.333,-5.038,0.00
6.350,-5.098,0.00
6.367,-5.151,0.00
6.383,-5.223,0.00
6.400,-5.305,0.00
6.417,-5.405,0.00
6.433,-5.536,0.00
6.450,-5.597,0.00
6.467,-5.497,0.00
6.483,-5.340,0.00
6.500,-5.299,0.00
6.517,-5.412,0.00
6.533,-5.631,0.00
6.550,-5.751,0.00
6.567,-5.616,0.00
6.583,-5.558,0.00
6.600,-8.605,0.00
6.617,-0.580,0.00
6.633,11.110,0.00
6.650,-12.340,0.00
6.667,-39.603,0.00
6.683,60.729,0.00
6.700,348.383,0.00
6.717,935.759,0.00
6.733,1781.495,0.00
6.750,2614.256,0.00
6.767,3166.713,0.00
6.783,3369.055,0.00
6.800,3316.742,0.00
6.817,3176.114,0.00
6.833,3106.313,0.00
6.850,3126.472,0.00
6.867,3108.310,0.00
6.883,3097.967,0.00
6.900,3100.502,0.00
6.917,3103.750,0.00
6.933,3107.107,0.00
6.950,3110.508,0.00
6.967,3113.275,0.00
6.983,3115.428,0.00
7.000,3117.063,0.00
7.017,3118.114,0.00
7.033,3119.266,0.00
7.050,3120.646,0.00
7.067,3121.922,0.00
7.083,3121.924,0.00
7.100,3121.454,0.00
7.117,3122.437,0.00
7.133,3122.407,0.00
7.150,3122.304,0.00
7.167,3121.493,0.00
7.183,3121.127,0.00
7.200,3122.080,0.00
7.217,3122.471,0.00
7.233,3122.287,0.00
7.250,3120.763,0.00
7.267,3118.775,0.00
7.283,3118.005,0.00
7.300,3117.663,0.00
7.317,3117.592,0.00
7.333,3117.986,0.00
7.350,3118.505,0.00
7.367,3118.604,0.00
7.383,3117.350,0.00
7.400,3115.539,0.00
7.417,3110.939,0.00
7.433,3104.100,0.00
7.450,3096.956,0.00
7.467,3091.000,0.00
7.483,3084.685,0.00
7.500,3078.686,0.00
7.517,3072.183,0.00
7.533,3066.400,0.00
7.550,3059.969,0.00
7.567,3054.446,0.00
7.583,3047.126,0.00
7.600,3040.181,0.00
7.617,3033.978,0.00
7.633,3028.629,0.00
7.650,3023.715,0.00
7.667,3018.026,0.00
7.683,3011.416,0.00
7.700,3004.673,0.00
7.717,2998.695,0.00
7.733,2993.477,0.00
7.750,2987.897,0.00
7.767,2981.664,0.00
7.783,2973.500,0.00
7.800,2966.304,0.00
7.817,2960.749,0.00
7.833,2955.379,0.00
7.850,2950.757,0.00
7.867,2945.494,0.00
7.883,2939.366,0.00
7.900,2933.397,0.00
7.917,2928.416,0.00
7.933,2922.647,0.00
7.950,2916.489,0.00
7.967,2910.738,0.00
7.983,2904.673,0.00
8.000,2899.796,0.00
8.017,2895.493,0.00
8.033,2889.835,0.00
8.050,2882.808,0.00
8.067,2876.336,0.00
8.083,2871.080,0.00
8.100,2866.977,0.00
8.117,2862.289,0.00
8.133,2857.054,0.00
8.150,2851.119,0.00
8.167,2845.302,0.00
8.183,2839.544,0.00
8.200,2834.387,0.00
8.217,2828.776,0.00
8.233,2823.277,0.00
8.250,2818.548,0.00
8.267,2814.363,0.00
8.283,2808.984,0.00
8.300,2803.442,0.00
8.317,2797.601,0.00
8.333,2791.133,0.00
8.350,2784.849,0.00
8.367,2779.667,0.00
8.383,2775.231,0.00
8.400,2771.037,0.00
8.417,2766.734,0.00
8.433,2761.977,0.00
8.450,2757.190,0.00
8.467,2753.889,0.00
8.483,2751.809,0.00
8.500,2749.272,0.00
8.517,2746.330,0.00
8.533,2744.289,0.00
8.550,2743.449,0.00
8.567,2743.416,0.00
8.583,2743.419,0.00
8.600,2741.996,0.00
8.617,2739.438,0.00
8.633,2737.101,0.00
8.650,2736.359,0.00
8.667,2736.785,0.00
8.683,2737.337,0.00
8.700,2737.027,0.00
8.717,2735.192,0.00
8.733,2732.888,0.00
8.750,2730.587,0.00
8.767,2727.769,0.00
8.783,2724.842,0.00
8.800,2721.666,0.00
8.817,2717.458,0.00
8.833,2711.759,0.00
8.850,2706.366,0.00
8.867,2702.542,0.00
8.883,2699.952,0.00
8.900,2697.439,0.00
8.917,2693.548,0.00
8.933,2688.034,0.00
8.950,2682.505,0.00
8.967,2678.216,0.00
8.983,2674.337,0.00
9.000,2669.718,0.00
9.017,2665.515,0.00
9.033,2662.054,0.00
9.050,2659.067,0.00
9.067,2656.629,0.00
9.083,2654.315,0.00
9.100,2651.115,0.00
9.117,2647.166,0.00
9.133,2643.308,0.00
9.150,2639.725,0.00
9.167,2636.886,0.00
9.183,2634.255,0.00
9.200,2630.207,0.00
9.217,2629.502,0.00
9.233,2625.792,0.00
9.250,2616.471,0.00
9.267,2614.119,0.00
9.283,2630.012,0.00
9.300,2681.809,0.00
9.317,2769.202,0.00
9.333,2864.956,0.00
9.350,2933.735,0.00
9.367,2960.874,0.00
9.383,2961.334,0.00
9.400,2948.844,0.00
9.417,2940.013,0.00
9.433,2938.811,0.00
9.450,2932.635,0.00
9.467,2925.136,0.00
9.483,2916.820,0.00
9.500,2907.360,0.00
9.517,2897.428,0.00
9.533,2888.009,0.00
9.550,2881.297,0.00
9.567,2872.673,0.00
9.583,2860.751,0.00
9.600,2850.188,0.00
9.617,2842.270,0.00
9.633,2848.400,0.00
9.650,2868.590,0.00
9.667,2888.417,0.00
9.683,2884.243,0.00
9.700,2866.241,0.00
9.717,2838.240,0.00
9.733,2810.859,0.00
9.750,2806.305,0.00
9.767,2828.949,0.00
9.783,2886.318,0.00
9.800,2974.732,0.00
9.817,3075.202,0.00
9.833,3109.283,0.00
9.850,3143.851,0.00
9.867,3207.031,0.00
9.883,3205.349,0.00
9.900,3065.687,0.00
9.917,2679.691,0.00
9.933,2116.136,0.00
9.950,1531.919,0.00
9.967,1059.202,0.00
9.983,724.393,0.00
10.000,455.869,0.00
10.017,284.896,0.00
10.033,171.732,0.00
10.050,99.825,0.00
10.067,68.012,0.00
10.083,24.363,0.00
10.100,0.182,0.00
10.117,-11.999,0.00
10.133,-13.154,0.00
10.150,-11.388,0.00
10.167,-10.032,0.00
10.183,-8.145,0.00
10.200,-6.350,0.00
10.217,-4.969,0.00
10.233,-3.970,0.00
10.250,-3.249,0.00
10.267,-3.207,0.00
10.283,-2.862,0.00
10.300,-1.671,0.00
10.317,-0.268,0.00
10.333,0.615,0.00
10.350,0.496,0.00
10.367,-0.351,0.00
10.383,-1.147,0.00
10.400,-1.014,0.00
10.417,-0.284,0.00
10.433,-0.125,0.00
10.450,-0.442,0.00
10.467,-1.031,0.00
10.483,-1.593,0.00
10.500,-1.689,0.00
10.517,-1.446,0.00
10.533,-1.305,0.00
10.550,-1.475,0.00
10.567,-1.796,0.00
10.583,-2.044,0.00
10.600,-2.138,0.00
10.617,-2.130,0.00
10.633,-2.089,0.00
10.650,-2.064,0.00
10.667,-1.956,0.00
10.683,-1.792,0.00
10.700,-1.589,0.00
10.717,-1.407,0.00
10.733,-1.394,0.00
10.750,-1.489,0.00
10.767,-1.561,0.00
10.783,-1.495,0.00
10.800,-1.408,0.00
10.817,-1.347,0.00
10.833,-1.302,0.00
10.850,-1.225,0.00
10.867,-1.050,0.00
10.883,-0.847,0.00
10.900,-0.733,0.00
10.917,-0.685,0.00
10.933,-0.687,0.00
10.950,-0.714,0.00
10.967,-0.726,0.00
10.983,-0.687,0.00
11.000,-0.627,0.00
11.017,-0.517,0.00
11.033,-0.415,0.00
11.050,-0.389,0.00
11.067,-0.412,0.00
11.083,-0.386,0.00
11.100,-0.320,0.00
11.117,-0.209,0.00
11.133,-0.057,0.00
11.150,0.029,0.00
11.167,0.068,0.00
11.183,0.092,0.00
11.200,0.073,0.00
11.217,-0.063,0.00
11.233,-0.177,0.00
11.250,-0.034,0.00
11.267,0.284,0.00
11.283,0.605,0.00
11.300,0.743,0.00
11.317,0.549,0.00
11.333,0.392,0.00
11.350,0.625,0.00
11.367,1.089,0.00
11.383,1.308,0.00
11.400,1.207,0.00
11.417,0.930,0.00
11.433,0.690,0.00
11.450,0.606,0.00
11.467,0.703,0.00
11.483,0.932,0.00
11.500,1.953,0.00
11.517,3.442,0.00
11.533,4.238,0.00
11.550,3.575,0.00
11.567,1.737,0.00
11.583,-0.086,0.00
11.600,-1.133,0.00
11.617,-1.347,0.00
11.633,-0.821,0.00
11.650,0.043,0.00
11.667,1.078,0.00
11.683,1.622,0.00
11.700,1.307,0.00
11.717,0.471,0.00
11.733,-0.374,0.00
11.750,-0.808,0.00
11.767,-1.106,0.00
11.783,-1.409,0.00
11.800,-1.492,0.00
11.817,-1.364,0.00
11.833,-1.239,0.00
11.850,-1.244,0.00
11.867,-1.428,0.00
11.883,-1.505,0.00
11.900,-1.574,0.00
11.917,-1.614,0.00
11.933,-1.538,0.00
11.950,-1.554,0.00
11.967,-1.459,0.00
11.983,-1.255,0.00
12.000,-1.121,0.00
12.017,-0.847,0.00
12.033,-0.644,0.00
12.050,-0.497,0.00
12.067,-0.703,0.00
12.083,-1.195,0.00
12.100,-0.869,0.00
12.117,2.704,0.00
12.133,6.787,0.00
12.150,-2.983,0.00
12.167,-0.175,0.00
12.183,150.875,0.00
12.200,539.746,0.00
12.217,1009.921,0.00
12.233,1258.711,0.00
12.250,1106.556,0.00
12.267,661.187,0.00
12.283,216.725,0.00
12.300,-1.001,0.00
12.317,-14.505,0.00
12.333,12.689,0.00
12.350,10.761,1.42
12.367,2.298,1.44
12.383,-0.614,1.45
12.400,-0.812,1.47
12.417,-0.690,1.49
12.433,-0.664,1.51
12.450,-0.534,1.53
12.467,-0.538,1.55
12.483,-0.719,1.56
12.500,-1.028,1.58
12.517,-1.205,1.60
12.533,-1.189,1.62
12.550,-1.354,1.64
12.567,-1.331,1.66
12.583,-1.169,1.68
12.600,-0.962,1.70
12.617,-0.951,1.72
12.633,-1.110,1.74
12.650,-1.397,1.76
12.667,-1.516,1.78
12.683,-1.348,1.80
12.700,-1.035,1.83
12.717,-0.980,1.85
12.733,-0.897,1.87
12.750,-0.920,1.89
12.767,-1.027,1.91
12.783,-1.175,1.93
12.800,-1.331,1.96
12.817,-1.392,1.98
12.833,-1.312,2.00
12.850,-1.270,2.02
12.867,-1.238,2.05
12.883,-1.254,2.07
12.900,-1.126,2.09
12.917,-0.883,2.12
12.933,-0.683,2.14
12.950,-0.671,2.16
12.967,-0.835,2.19
12.983,-0.957,2.21
13.000,-0.966,2.24
13.017,-0.897,2.26
13.033,-0.836,2.29
13.050,-0.917,2.31
13.067,-0.986,2.34
13.083,-0.937,2.36
13.100,-0.840,2.39
13.117,-0.738,2.41
13.133,-0.617,2.44
13.150,-0.495,2.47
13.167,-0.422,2.49
13.183,-0.396,2.52
13.200,-0.455,2.55
13.217,-0.545,2.57
13.233,-0.603,2.60
13.250,-0.571,2.63
13.267,-0.488,2.66
13.283,-0.416,2.68
13.300,-0.404,2.71
13.317,-0.369,2.74
13.333,-0.236,2.77
13.350,-0.078,2.80
13.367,0.074,2.83
13.383,0.220,2.86
13.400,0.265,2.88
13.417,0.465,2.91
13.433,0.971,2.94
13.450,1.392,2.97
13.467,1.342,3.00
13.483,0.805,3.03
13.500,0.129,3.06
13.517,-0.354,3.10
13.533,-0.445,3.13
13.550,-0.358,3.16
13.567,-0.354,3.19
13.583,-0.326,3.22
13.600,-0.239,3.25
13.617,-0.155,3.29
13.633,-0.141,3.32
13.650,-0.158,3.35
13.667,-0.144,3.38
13.683,-0.102,3.42
13.700,-0.044,3.45
13.717,-0.042,3.48
13.733,-0.012,3.52
13.750,-0.024,3.55
13.767,-0.033,3.59
13.783,-0.045,3.62
13.800,-0.065,3.65
13.817,-0.030,3.69
13.833,0.034,3.72
13.850,0.120,3.76
13.867,0.251,3.80
13.883,0.359,3.83
13.900,0.444,3.87
13.917,0.477,3.90
13.933,0.505,3.94
13.950,0.471,3.98
13.967,0.370,4.01
13.983,0.226,4.05
14.000,0.207,4.09
14.017,0.354,4.13
14.033,0.552,4.16
14.050,0.642,4.20
14.067,0.686,4.24
14.083,0.683,4.28
14.100,0.732,4.32
14.117,0.730,4.36
14.133,0.668,4.40
14.150,0.631,4.44
14.167,0.601,4.48
14.183,0.586,4.52
14.200,0.509,4.56
14.217,0.436,4.60
14.233,0.476,4.64
14.250,0.533,4.68
14.267,0.661,4.72
14.283,0.704,4.76
14.300,0.727,4.81
14.317,0.784,4.85
14.333,0.800,4.89
14.350,0.723,4.93
14.367,0.594,4.98
14.383,0.492,5.02
14.400,0.479,5.06
14.417,0.500,5.11
14.433,0.574,5.15
14.450,0.552,5.19
14.467,0.495,5.24
14.483,0.389,5.28
14.500,0.337,5.33
14.517,0.163,5.37
14.533,-0.057,5.42
14.550,-0.204,5.46
14.567,-0.244,5.51
14.583,-0.202,5.56
14.600,-0.214,5.60
14.617,-0.209,5.65
14.633,0.014,5.70
14.650,0.316,5.74
14.667,0.736,5.79
14.683,1.047,5.84
14.700,1.184,5.89
14.717,1.168,5.94
14.733,1.063,5.98
14.750,0.977,6.03
14.767,0.743,6.08
14.783,0.524,6.13
14.800,0.597,6.18
14.817,0.921,6.23
14.833,1.110,6.28
14.850,0.937,6.33
14.867,0.612,6.38
14.883,0.408,6.43
14.900,0.751,6.49
14.917,1.763,6.54
14.933,3.146,6.59
14.950,4.784,6.64
14.967,6.399,6.69
14.983,7.520,6.75
15.000,7.842,6.80
15.017,7.562,6.85
15.033,7.163,6.91
15.050,6.829,6.96
15.067,6.633,7.01
15.083,6.337,7.07
15.100,5.874,7.12
15.117,5.579,7.18
15.133,5.554,7.23
15.150,5.909,7.29
15.167,6.520,7.34
15.183,7.362,7.40
15.200,8.522,7.46
15.217,9.846,7.51
15.233,10.930,7.57
15.250,10.948,7.63
15.267,9.738,7.68
15.283,7.975,7.74
15.300,6.492,7.80
15.317,5.751,7.86
15.333,5.601,7.92
15.350,5.923,7.98
15.367,6.430,8.04
15.383,6.974,8.09
15.400,7.523,8.15
15.417,7.815,8.21
15.433,7.999,8.27
15.450,8.860,8.34
15.467,11.436,8.40
15.483,15.321,8.46
15.500,20.542,8.52
15.517,31.572,8.58
15.533,52.153,8.64
15.550,79.291,8.71
15.567,104.434,8.77
15.583,118.736,8.83
15.600,118.262,8.89
15.617,105.981,8.96
15.633,88.123,9.02
15.650,68.272,9.09
15.667,48.117,9.15
15.683,30.619,9.21
15.700,17.410,9.28
15.717,7.987,9.34
15.733,1.610,9.41
15.750,-2.027,9.48
15.767,-3.375,9.54
15.783,-3.406,9.61
15.800,-3.069,9.68
15.817,-2.710,9.74
15.833,-2.214,9.81
15.850,-1.595,9.88
15.867,-1.201,9.95
15.883,-1.329,10.01
15.900,-1.831,10.08
15.917,-2.212,10.15
15.933,-2.227,10.22
15.950,-2.016,10.29
15.967,-1.880,10.36
15.983,-2.057,10.43
16.000,-2.259,10.50
16.017,-2.189,10.57
16.033,-1.806,10.64
16.050,-1.273,10.71
16.067,-0.741,10.78
16.083,-0.224,10.86
16.100,0.412,10.93
16.117,1.287,11.00
16.133,2.209,11.07
16.150,2.840,11.15
16.167,3.360,11.22
16.183,4.181,11.29
16.200,5.666,11.37
16.217,7.762,11.44
16.233,10.196,11.52
16.250,12.973,11.59
16.267,16.339,11.67
16.283,20.381,11.74
16.300,23.920,11.82
16.317,24.795,11.90
16.333,21.569,11.97
16.350,15.321,12.05
16.367,8.758,12.13
16.383,4.135,12.20
16.400,1.920,12.28
16.417,0.887,12.36
16.433,-0.054,12.44
16.450,-0.587,12.52
16.467,-0.319,12.59
16.483,0.730,12.67
16.500,2.034,12.75
16.517,3.422,12.83
16.533,4.783,12.91
16.550,5.987,12.99
16.567,6.814,13.08
16.583,6.817,13.16
16.600,6.103,13.24
16.617,5.159,13.32
16.633,4.336,13.40
16.650,3.934,13.48
16.667,4.084,13.57
16.683,4.976,13.65
16.700,6.625,13.73
16.717,8.901,13.82
16.733,11.292,13.90
16.750,13.667,13.99
16.767,15.681,14.07
16.783,16.730,14.15
16.800,15.882,14.24
16.817,13.066,14.33
16.833,8.977,14.41
16.850,5.396,14.50
16.867,3.665,14.58
16.883,3.712,14.67
16.900,4.539,14.76
16.917,5.511,14.85
16.933,6.343,14.93
16.950,7.247,15.02
16.967,7.794,15.11
16.983,7.992,15.20
17.000,7.593,15.29
17.017,7.150,15.38
17.033,6.986,15.47
17.050,6.940,15.56
17.067,7.144,15.65
17.083,7.309,15.74
17.100,7.483,15.83
17.117,7.836,15.92
17.133,8.320,16.01
17.150,9.041,16.10
17.167,9.744,16.20
17.183,10.407,16.29
17.200,10.941,16.38
17.217,11.541,16.47
17.233,13.308,16.57
17.250,18.287,16.66
17.267,29.396,16.76
17.283,48.987,16.85
17.300,74.020,16.95
17.317,95.774,17.04
17.333,104.174,17.14
17.350,95.272,17.23
17.367,74.064,17.33
17.383,50.729,17.42
17.400,33.230,17.52
17.417,23.483,17.62
17.433,18.556,17.72
17.450,16.364,17.81
17.467,15.441,17.91
17.483,15.191,18.01
17.500,15.356,18.11
17.517,15.700,18.21
17.533,15.931,18.31
17.550,15.844,18.41
17.567,15.428,18.51
17.583,15.234,18.61
17.600,16.576,18.71
17.617,20.427,18.81
17.633,25.058,18.91
17.650,27.506,19.01
17.667,26.144,19.11
17.683,21.518,19.22
17.700,16.290,19.32
17.717,12.933,19.42
17.733,12.314,19.53
17.750,13.679,19.63
17.767,16.096,19.73
17.783,18.797,19.84
17.800,21.494,19.94
17.817,24.245,20.05
17.833,27.107,20.15
17.850,29.984,20.26
17.867,32.609,20.36
17.883,34.611,20.47
17.900,35.394,20.58
17.917,34.020,20.68
17.933,30.132,20.79
17.950,24.622,20.90
17.967,19.412,21.00
17.983,16.150,21.11
18.000,15.528,21.22
18.017,17.252,21.33
18.033,20.774,21.44
18.050,25.684,21.55
18.067,31.005,21.66
18.083,35.380,21.77
18.100,38.389,21.88
18.117,41.956,21.99
18.133,48.855,22.10
18.150,59.424,22.21
18.167,70.058,22.32
18.183,75.479,22.44
18.200,74.463,22.55
18.217,78.304,22.66
18.233,113.986,22.77
18.250,209.514,22.89
18.267,360.498,23.00
18.283,512.988,23.12
18.300,592.860,23.23
18.317,561.436,23.34
18.333,448.150,23.46
18.350,331.713,23.57
18.367,286.492,23.69
18.383,338.673,23.81
18.400,460.421,23.92
18.417,592.038,24.04
18.433,670.793,24.16
18.450,666.703,24.27
18.467,607.168,24.39
18.483,564.328,24.51
18.500,596.674,24.63
18.517,697.359,24.75
18.533,796.048,24.86
18.550,813.210,24.98
18.567,720.185,25.10
18.583,551.639,25.22
18.600,371.909,25.34
18.617,230.164,25.46
18.633,140.948,25.59
18.650,95.610,25.71
18.667,77.256,25.83
18.683,73.887,25.95
18.700,79.987,26.07
18.717,92.514,26.19
18.733,107.161,26.32
18.750,116.746,26.44
18.767,115.455,26.56
18.783,102.049,26.69
18.800,81.379,26.81
18.817,61.533,26.94
18.833,48.118,27.06
18.850,42.132,27.19
18.867,41.213,27.31
18.883,41.955,27.44
18.900,42.230,27.56
18.917,41.122,27.69
18.933,39.389,27.82
18.950,37.874,27.94
18.967,37.537,28.07
18.983,39.083,28.20
19.000,41.912,28.33
19.017,45.354,28.46
19.033,48.392,28.58
19.050,50.095,28.71
19.067,49.734,28.84
19.083,47.434,28.97
19.100,44.108,29.10
19.117,40.632,29.23
19.133,37.998,29.36
19.150,36.603,29.49
19.167,35.728,29.63
19.183,34.926,29.76
19.200,33.603,29.89
19.217,31.935,30.02
19.233,30.286,30.15
19.250,29.213,30.29
19.267,29.182,30.42
19.283,30.526,30.55
19.300,33.271,30.69
19.317,36.975,30.82
19.333,40.599,30.96
19.350,43.193,31.09
19.367,43.951,31.23
19.383,43.380,31.36
19.400,42.112,31.50
19.417,40.954,31.63
19.433,40.455,31.77
19.450,40.696,31.91
19.467,41.605,32.04
19.483,43.201,32.18
19.500,45.730,32.32
19.517,48.953,32.46
19.533,52.396,32.60
19.550,55.422,32.73
19.567,57.212,32.87
19.583,58.083,33.01
19.600,58.580,33.15
19.617,59.672,33.29
19.633,61.798,33.43
19.650,64.591,33.57
19.667,67.489,33.71
19.683,70.256,33.86
19.700,72.891,34.00
19.717,75.356,34.14
19.733,76.816,34.28
19.750,76.219,34.42
19.767,72.848,34.57
19.783,67.569,34.71
19.800,62.137,34.85
19.817,58.385,35.00
19.833,58.072,35.14
19.850,62.016,35.29
19.867,70.247,35.43
19.883,81.995,35.58
19.900,95.480,35.72
19.917,109.393,35.87
19.933,124.244,36.01
19.950,145.577,36.16
19.967,187.216,36.31
19.983,267.582,36.45
20.000,394.530,36.60
20.017,550.785,36.75
20.033,697.794,36.90
20.050,799.277,37.05
20.067,840.929,37.19
20.083,832.254,37.34
20.100,791.556,37.49
20.117,730.617,37.64
20.133,652.669,37.79
20.150,561.107,37.94
20.167,463.227,38.09
20.183,367.946,38.24
20.200,282.828,38.39
20.217,213.410,38.55
20.233,161.174,38.70
20.250,124.115,38.85
20.267,98.307,39.00
20.283,79.887,39.15
20.300,66.183,39.31
20.317,56.020,39.46
20.333,48.603,39.61
20.350,43.406,39.77
20.367,39.700,39.92
20.383,36.876,40.08
20.400,35.006,40.23
20.417,34.309,40.39
20.433,34.996,40.54
20.450,37.400,40.70
20.467,42.715,40.86
20.483,53.434,41.01
20.500,72.987,41.17
20.517,105.939,41.33
20.533,157.609,41.48
20.550,233.637,41.64
20.567,338.730,41.80
20.583,473.618,41.96
20.600,632.311,42.12
20.617,799.555,42.28
20.633,950.752,42.43
20.650,1056.566,42.59
20.667,1092.538,42.75
20.683,1048.271,42.91
20.700,932.614,43.07
20.717,770.680,43.24
20.733,594.444,43.40
20.750,431.631,43.56
20.767,299.864,43.72
20.783,205.104,43.88
20.800,143.588,44.04
20.817,107.278,44.21
20.833,87.958,44.37
20.850,80.129,44.53
20.867,85.449,44.70
20.883,122.451,44.86
20.900,218.624,45.03
20.917,388.487,45.19
20.933,613.237,45.35
20.950,845.485,45.52
20.967,1035.252,45.69
20.983,1152.907,45.85
21.000,1193.859,46.02
21.017,1168.366,46.18
21.033,1089.169,46.35
21.050,973.219,46.52
21.067,838.467,46.68
21.083,700.795,46.85
21.100,568.724,47.02
21.117,446.588,47.19
21.133,339.384,47.36
21.150,251.252,47.53
21.167,184.022,47.69
21.183,136.729,47.86
21.200,106.555,48.03
21.217,88.660,48.20
21.233,79.240,48.37
21.250,75.107,48.54
21.267,75.983,48.72
21.283,82.054,48.89
21.300,95.054,49.06
21.317,116.920,49.23
21.333,147.860,49.40
21.350,184.140,49.57
21.367,219.089,49.75
21.383,246.376,49.92
21.400,262.933,50.09
21.417,269.202,50.27
21.433,266.985,50.44
21.450,257.343,50.61
21.467,241.671,50.79
21.483,222.461,50.96
21.500,203.545,51.14
21.517,186.996,51.31
21.533,172.637,51.49
21.550,160.163,51.67
21.567,149.230,51.84
21.583,141.344,52.02
21.600,136.735,52.20
21.617,135.459,52.37
21.633,135.098,52.55
21.650,133.455,52.73
21.667,129.121,52.91
21.683,120.944,53.08
21.700,109.463,53.26
21.717,96.240,53.44
21.733,82.945,53.62
21.750,71.566,53.80
21.767,62.922,53.98
21.783,57.569,54.16
21.800,54.543,54.34
21.817,53.180,54.52
21.833,52.626,54.70
21.850,52.232,54.88
21.867,51.599,55.07
21.883,50.502,55.25
21.900,48.981,55.43
21.917,47.111,55.61
21.933,45.068,55.80
21.950,43.135,55.98
21.967,41.920,56.16
21.983,42.007,56.35
22.000,43.810,56.53
22.017,47.332,56.71
22.033,52.553,56.90
22.050,59.949,57.08
22.067,70.780,57.27
22.083,88.752,57.45
22.100,119.270,57.64
22.117,167.457,57.82
22.133,232.657,58.01
22.150,307.933,58.20
22.167,383.707,58.38
22.183,454.831,58.57
22.200,521.622,58.76
22.217,584.516,58.95
22.233,638.133,59.13
22.250,671.616,59.32
22.267,675.472,59.51
22.283,648.366,59.70
22.300,596.710,59.89
22.317,530.250,60.08
22.333,456.417,60.27
22.350,380.502,60.46
22.367,306.305,60.65
22.383,237.676,60.84
22.400,178.194,61.03
22.417,130.402,61.22
22.433,94.996,61.41
22.450,70.467,61.60
22.467,54.614,61.79
22.483,44.905,61.99
22.500,39.083,62.18
22.517,35.647,62.37
22.533,34.086,62.56
22.550,34.351,62.76
22.567,36.858,62.95
22.583,42.694,63.14
22.600,51.831,63.34
22.617,62.880,63.53
22.633,73.987,63.73
22.650,83.891,63.92
22.667,92.582,64.12
22.683,101.198,64.31
22.700,111.544,64.51
22.717,125.380,64.70
22.733,144.446,64.90
22.750,170.048,65.10
22.767,201.787,65.29
22.783,237.222,65.49
22.800,272.005,65.69
22.817,301.918,65.89
22.833,325.274,66.08
22.850,343.229,66.28
22.867,358.054,66.48
22.883,370.477,66.68
22.900,378.072,66.88
22.917,376.871,67.08
22.933,363.818,67.28
22.950,339.623,67.48
22.967,307.598,67.68
22.983,271.647,67.88
23.000,234.714,68.08
23.017,197.172,68.28
23.033,159.914,68.48
23.050,125.751,68.68
23.067,97.519,68.88
23.083,76.938,69.09
23.100,63.572,69.29
23.117,56.329,69.49
23.133,53.795,69.69
23.150,53.091,69.90
23.167,54.922,70.10
23.183,59.001,70.30
23.200,63.089,70.51
23.217,64.590,70.71
23.233,61.961,70.92
23.250,55.725,71.12
23.267,48.180,71.33
23.283,41.788,71.53
23.300,36.687,71.74
23.317,30.174,71.94
23.333,24.518,72.15
23.350,20.812,72.35
23.367,18.888,72.56
23.383,18.530,72.77
23.400,18.784,72.97
23.417,19.056,73.18
23.433,19.258,73.39
23.450,19.462,73.60
23.467,19.687,73.81
23.483,19.761,74.01
23.500,19.910,74.22
23.517,20.089,74.43
23.533,20.362,74.64
23.550,20.810,74.85
23.567,21.408,75.06
23.583,21.971,75.27
23.600,22.525,75.48
23.617,22.942,75.69
23.633,22.945,75.90
23.650,22.579,76.11
23.667,22.149,76.32
23.683,21.681,76.53
23.700,21.534,76.75
23.717,21.765,76.96
23.733,23.468,77.17
23.750,26.962,77.38
23.767,32.362,77.59
23.783,38.532,77.81
23.800,44.658,78.02
23.817,50.250,78.23
23.833,55.025,78.45
23.850,58.909,78.66
23.867,61.827,78.88
23.883,62.652,79.09
23.900,61.835,79.31
23.917,59.063,79.52
23.933,54.440,79.74
23.950,48.335,79.95
23.967,41.517,80.17
23.983,34.560,80.38
24.000,28.057,80.60
24.017,22.371,80.82
24.033,17.689,81.03
24.050,13.794,81.25
24.067,10.828,81.47
24.083,8.350,81.68
24.100,6.467,81.90
24.117,5.246,82.12
24.133,4.376,82.34
24.150,3.755,82.56
24.167,3.325,82.77
24.183,2.945,82.99
24.200,2.610,83.21
24.217,2.399,83.43
24.233,2.189,83.65
24.250,2.062,83.87
24.267,2.125,84.09
24.283,2.215,84.31
24.300,2.399,84.53
24.317,2.733,84.75
24.333,3.190,84.98
24.350,3.688,85.20
24.367,4.227,85.42
24.383,4.822,85.64
24.400,5.726,85.86
24.417,6.465,86.08
24.433,7.266,86.31
24.450,8.268,86.53
24.467,9.407,86.75
24.483,10.314,86.98
24.500,10.719,87.20
24.517,10.431,87.42
24.533,9.615,87.65
24.550,8.752,87.87
24.567,8.542,88.10
24.583,8.708,88.32
24.600,9.474,88.55
24.617,10.533,88.77
24.633,11.461,89.00
24.650,12.054,89.22
24.667,12.556,89.45
24.683,13.081,89.67
24.700,13.437,89.90
24.717,13.359,90.13
24.733,12.884,90.35
24.750,12.041,90.58
24.767,10.950,90.81
24.783,9.844,91.04
24.800,8.765,91.26
24.817,7.708,91.49
24.833,6.670,91.72
24.850,5.619,91.95
24.867,4.608,92.18
24.883,3.754,92.41
24.900,3.137,92.64
24.917,2.774,92.87
24.933,2.556,93.09
24.950,2.384,93.32
24.967,2.144,93.55
24.983,1.853,93.78
25.000,1.601,94.02
25.017,1.483,94.25
25.033,1.523,94.48
25.050,1.655,94.71
25.067,1.726,94.94
25.083,1.744,95.17
25.100,1.798,95.40
25.117,1.926,95.64
25.133,2.146,95.87
25.150,2.399,96.10
25.167,2.715,96.33
25.183,3.170,96.57
25.200,3.830,96.80
25.217,4.799,97.03
25.233,6.153,97.27
25.250,7.988,97.50
25.267,10.469,97.74
25.283,13.854,97.97
25.300,18.539,98.20
25.317,25.102,98.44
25.333,34.488,98.67
25.350,47.234,98.91
25.367,62.730,99.14
25.383,80.090,99.38
25.400,97.706,99.62
25.417,113.332,99.85
25.433,125.143,100.09
25.450,132.530,100.33
25.467,135.372,100.56
25.483,134.336,100.80
25.500,130.150,101.04
25.517,123.513,101.27
25.533,114.961,101.51
25.550,105.485,101.75
25.567,95.734,101.99
25.583,86.141,102.23
25.600,77.486,102.46
25.617,70.786,102.70
25.633,65.931,102.94
25.650,63.326,103.18
25.667,60.601,103.42
25.683,57.690,103.66
25.700,57.127,103.90
25.717,58.824,104.14
25.733,59.961,104.38
25.750,57.753,104.62
25.767,51.716,104.86
25.783,43.786,105.10
25.800,37.195,105.34
25.817,33.982,105.58
25.833,31.522,105.83
25.850,29.097,106.07
25.867,27.801,106.31
25.883,28.037,106.55
25.900,30.090,106.79
25.917,33.983,107.04
25.933,40.070,107.28
25.950,47.594,107.52
25.967,55.606,107.77
25.983,63.199,108.01
26.000,69.588,108.25
26.017,74.060,108.50
26.033,76.474,108.74
26.050,77.002,108.98
26.067,75.522,109.23
26.083,72.312,109.47
26.100,68.259,109.72
26.117,63.816,109.96
26.133,59.477,110.21
26.150,55.233,110.45
26.167,51.160,110.70
26.183,47.349,110.95
26.200,44.598,111.19
26.217,43.148,111.44
26.233,42.776,111.68
26.250,42.781,111.93
26.267,42.656,112.18
26.283,42.326,112.43
26.300,41.654,112.67
26.317,40.424,112.92
26.333,38.587,113.17
26.350,36.004,113.42
26.367,32.855,113.66
26.383,29.579,113.91
26.400,26.058,114.16
26.417,22.240,114.41
26.433,18.564,114.66
26.450,15.024,114.91
26.467,12.052,115.16
26.483,9.693,115.41
26.500,7.911,115.66
26.517,6.500,115.91
26.533,5.318,116.16
26.550,4.481,116.41
26.567,3.723,116.66
26.583,3.107,116.91
26.600,2.665,117.16
26.617,2.232,117.41
26.633,2.001,117.66
26.650,1.822,117.91
26.667,1.568,118.16
26.683,1.306,118.41
26.700,1.058,118.67
26.717,0.863,118.92
26.733,0.856,119.17
26.750,0.797,119.42
26.767,0.774,119.68
26.783,0.696,119.93
26.800,0.735,120.18
26.817,0.803,120.44
26.833,0.853,120.69
26.850,0.853,120.94
26.867,0.770,121.20
26.883,0.781,121.45
26.900,1.015,121.70
26.917,1.429,121.96
26.933,2.033,122.21
26.950,2.701,122.47
26.967,3.537,122.72
26.983,4.554,122.98
27.000,5.978,123.23
27.017,7.802,123.49
27.033,9.859,123.75
27.050,11.879,124.00
27.067,13.727,124.26
27.083,15.336,124.51
27.100,16.620,124.77
27.117,17.625,125.03
27.133,18.099,125.28
27.150,17.854,125.54
27.167,17.080,125.80
27.183,15.993,126.06
27.200,14.723,126.31
27.217,13.316,126.57
27.233,11.745,126.83
27.250,10.010,127.09
27.267,8.223,127.34
27.283,6.579,127.60
27.300,5.139,127.86
27.317,3.908,128.12
27.333,2.928,128.38
27.350,2.231,128.64
27.367,1.778,128.90
27.383,1.478,129.16
27.400,1.269,129.42
27.417,1.112,129.68
27.433,0.961,129.94
27.450,0.829,130.20
27.467,0.792,130.46
27.483,0.923,130.72
27.500,1.191,130.98
27.517,1.477,131.24
27.533,1.690,131.50
27.550,1.707,131.76
27.567,1.556,132.02
27.583,1.287,132.29
27.600,0.935,132.55
27.617,0.642,132.81
27.633,0.468,133.07
27.650,0.411,133.33
27.667,0.323,133.60
27.683,0.148,133.86
27.700,-0.022,134.12
27.717,-0.188,134.39
27.733,-0.266,134.65
27.750,-0.370,134.91
27.767,-0.509,135.18
27.783,-0.546,135.44
27.800,-0.481,135.70
27.817,-0.392,135.97
27.833,-0.443,136.23
27.850,-0.580,136.50
27.867,-0.444,136.76
27.883,-0.636,137.03
27.900,-0.325,137.29
27.917,1.653,137.56
27.933,4.726,137.82
27.950,7.091,138.09
27.967,7.370,138.35
27.983,5.693,138.62
28.000,3.402,138.88
28.017,2.192,139.15
28.033,2.404,139.42
28.050,2.385,139.68
28.067,2.199,139.95
28.083,2.050,140.22
28.100,1.912,140.48
28.117,1.732,140.75
28.133,1.478,141.02
28.150,1.174,141.28
28.167,0.791,141.55
28.183,0.486,141.82
28.200,0.190,142.09
28.217,0.003,142.35
28.233,-0.134,142.62
28.250,-0.322,142.89
28.267,-0.460,143.16
28.283,-0.497,143.43
28.300,-0.397,143.70
28.317,-0.154,143.97
28.333,0.015,144.24
28.350,0.131,144.50
28.367,0.095,144.77
28.383,0.028,145.04
28.400,-0.155,145.31
28.417,-0.267,145.58
28.433,-0.431,145.85
28.450,-0.661,146.12
28.467,-0.791,146.39
28.483,-0.711,146.66
28.500,-0.557,146.94
28.517,-0.503,147.21
28.533,-0.415,147.48
28.550,-0.390,147.75
28.567,-0.516,148.02
28.583,-0.590,148.29
28.600,-0.647,148.56
28.617,-0.655,148.83
28.633,-0.724,149.11
28.650,-0.665,149.38
28.667,-0.016,149.65
28.683,0.836,149.92
28.700,1.496,150.20
28.717,1.383,150.47
28.733,0.598,150.74
28.750,-0.246,151.01
28.767,-0.530,151.29
28.783,-0.465,151.56
28.800,-0.391,151.83
28.817,-0.484,152.11
28.833,-0.471,152.38
28.850,-0.488,152.66
28.867,-0.481,152.93
28.883,-0.537,153.20
28.900,-0.591,153.48
28.917,-0.595,153.75
28.933,-0.504,154.03
28.950,-0.461,154.30
28.967,-0.377,154.58
28.983,-0.365,154.85
29.000,-0.320,155.13
29.017,-0.321,155.40
29.033,-0.256,155.68
29.050,-0.139,155.95
29.067,-0.010,156.23
29.083,0.042,156.51
29.100,-0.013,156.78
29.117,-0.091,157.06
29.133,-0.163,157.33
29.150,-0.211,157.61
29.167,-0.167,157.89
29.183,-0.130,158.16
29.200,-0.054,158.44
29.217,0.074,158.72
29.233,0.107,159.00
29.250,0.022,159.27
29.267,-0.153,159.55
29.283,-0.180,159.83
29.300,-0.058,160.11
29.317,0.076,160.38
29.333,0.083,160.66
29.350,-0.086,160.94
29.367,-0.308,161.22
29.383,-0.357,161.50
29.400,-0.238,161.77
29.417,-0.088,162.05
29.433,-0.096,162.33
29.450,-0.228,162.61
29.467,-0.441,162.89
29.483,-0.570,163.17
29.500,-0.537,163.45
29.517,-0.369,163.73
29.533,-0.198,164.01
29.550,-0.142,164.29
29.567,-0.152,164.57
29.583,-0.174,164.85
29.600,-0.141,165.13
29.617,0.024,165.41
29.633,0.182,165.69
29.650,0.219,165.97
29.667,0.103,166.25
29.683,-0.010,166.53
29.700,0.000,166.81
29.717,0.057,167.09
29.733,0.178,167.38
29.750,0.281,167.66
29.767,0.264,167.94
29.783,0.248,168.22
29.800,0.335,168.50
29.817,0.475,168.78
29.833,0.544,169.07
29.850,0.456,169.35
29.867,0.281,169.63
29.883,0.119,169.91
29.900,0.124,170.20
29.917,0.243,170.48
29.933,0.301,170.76
29.950,0.287,171.04
29.967,0.211,171.33
29.983,0.113,171.61
30.000,-0.017,171.89
30.017,-0.096,172.18
30.033,-0.089,172.46
30.050,-0.040,172.75
30.067,0.012,173.03
30.083,-0.033,173.31
30.100,-0.113,173.60
30.117,-0.153,173.88
30.133,-0.140,174.17
30.150,-0.121,174.45
30.167,-0.167,174.74
30.183,-0.239,175.02
30.200,-0.292,175.31
30.217,-0.266,175.59
30.233,-0.181,175.88
30.250,-0.150,176.16
30.267,-0.184,176.45
30.283,-0.275,176.73
30.300,-0.306,177.02
30.317,-0.232,177.30
30.333,-0.154,177.59
30.350,-0.054,177.87
30.367,0.058,178.16
30.383,0.271,178.45
30.400,-0.128,178.73
30.417,-0.278,179.02
30.433,0.668,179.31
30.450,2.204,179.59
30.467,3.263,179.88
30.483,3.102,180.17
30.500,1.812,180.45
30.517,0.425,180.74
30.533,-0.044,181.03
30.550,0.310,181.32
30.567,0.128,181.60
30.583,-0.049,181.89
30.600,-0.075,182.18
30.617,-0.008,182.47
30.633,-0.004,182.75
30.650,-0.069,183.04
30.667,-0.219,183.33
30.683,-0.271,183.62
30.700,-0.193,183.91
30.717,-0.185,184.20
30.733,-0.207,184.49
30.750,-0.334,184.77
30.767,-0.437,185.06
30.783,-0.289,185.35
30.800,-0.241,185.64
30.817,-0.208,185.93
30.833,-0.209,186.22
30.850,-0.153,186.51
30.867,-0.008,186.80
30.883,-0.001,187.09
30.900,-0.037,187.38
30.917,-0.207,187.67
30.933,-0.236,187.96
30.950,-0.207,188.25
30.967,-0.289,188.54
30.983,-0.300,188.83
31.000,-0.331,189.12
31.017,-0.275,189.41
31.033,-0.104,189.70
31.050,-0.068,189.99
31.067,-0.109,190.28
31.083,-0.164,190.57
31.100,-0.090,190.86
31.117,-0.154,191.16
31.133,-0.231,191.45
31.150,-0.291,191.74
31.167,-0.310,192.03
31.183,-0.203,192.32
31.200,-0.055,192.61
31.217,0.003,192.91
31.233,-0.118,193.20
31.250,-0.160,193.49
31.267,-0.081,193.78
31.283,-0.068,194.07
31.300,-0.134,194.37
31.317,-0.245,194.66
31.333,-0.337,194.95
31.350,-0.289,195.24
31.367,-0.203,195.54
31.383,-0.140,195.83
31.400,-0.184,196.12
31.417,-0.285,196.42
31.433,-0.307,196.71
31.450,-0.236,197.00
31.467,-0.140,197.30
31.483,-0.061,197.59
31.500,-0.136,197.88
31.517,-0.004,198.18
31.533,0.274,198.47
31.550,0.553,198.77
31.567,0.616,199.06
31.583,0.466,199.35
31.600,0.249,199.65
31.617,0.136,199.94
31.633,0.127,200.24
31.650,0.159,200.53
31.667,0.035,200.83
31.683,0.005,201.12
31.700,0.063,201.42
31.717,0.236,201.71
31.733,0.405,202.01
31.750,0.476,202.30
31.767,0.388,202.60
31.783,0.173,202.89
31.800,-0.028,203.19
31.817,-0.120,203.48
31.833,-0.124,203.78
31.850,-0.071,204.07
31.867,0.005,204.37
31.883,0.077,204.67
31.900,0.031,204.96
31.917,0.031,205.26
31.933,-0.005,205.55
31.950,-0.148,205.85
31.967,0.008,206.15
31.983,0.312,206.44
32.000,0.555,206.74
32.017,0.558,207.04
32.033,0.393,207.33
32.050,0.153,207.63
32.067,0.003,207.93
32.083,0.095,208.22
32.100,0.052,208.52
32.117,-0.122,208.82
32.133,-0.166,209.12
32.150,-0.158,209.41
32.167,-0.041,209.71
32.183,0.113,210.01
32.200,0.172,210.31
32.217,0.103,210.60
32.233,-0.026,210.90
32.250,-0.090,211.20
32.267,-0.084,211.50
32.283,-0.067,211.79
32.300,-0.130,212.09
32.317,-0.241,212.39
32.333,-0.247,212.69
32.350,-0.186,212.99
32.367,-0.095,213.29
32.383,0.037,213.59
32.400,0.115,213.88
32.417,0.104,214.18
32.433,0.051,214.48
32.450,-0.038,214.78
32.467,-0.127,215.08
32.483,-0.153,215.38
32.500,-0.058,215.68
32.517,-0.019,215.98
32.533,-0.038,216.28
32.550,0.073,216.58
32.567,0.254,216.88
32.583,0.342,217.18
32.600,0.326,217.48
32.617,0.096,217.78
32.633,-0.134,218.08
32.650,-0.193,218.38
32.667,-0.069,218.68
32.683,-0.024,218.98
32.700,0.000,219.28
32.717,0.080,219.58
32.733,0.217,219.88
32.750,0.368,220.18
32.767,0.453,220.48
32.783,0.373,220.78
32.800,0.317,221.08
32.817,0.262,221.38
32.833,0.104,221.68
32.850,-0.046,221.98
32.867,-0.111,222.28
32.883,-0.028,222.58
32.900,0.115,222.89
32.917,0.178,223.19
32.933,0.075,223.49
32.950,-0.002,223.79
32.967,-0.043,224.09
32.983,0.006,224.39
33.000,0.012,224.69
33.017,-0.015,225.00
33.033,-0.076,225.30
33.050,-0.068,225.60
33.067,-0.149,225.90
33.083,-0.270,226.20
33.100,-0.235,226.51
33.117,-0.016,226.81
33.133,0.020,227.11
33.150,0.054,227.41
33.167,-0.033,227.72
33.183,-0.161,228.02
33.200,-0.084,228.32
33.217,0.141,228.62
33.233,0.224,228.93
33.250,0.085,229.23
33.267,-0.027,229.53
33.283,-0.096,229.84
33.300,-0.146,230.14
33.317,-0.029,230.44
33.333,0.031,230.75
33.350,-0.046,231.05
33.367,-0.090,231.35
33.383,-0.112,231.66
33.400,-0.055,231.96
33.417,-0.051,232.26
33.433,-0.035,232.57
33.450,-0.186,232.87
33.467,-0.258,233.17
33.483,-0.218,233.48
33.500,-0.140,233.78
33.517,-0.087,234.09
33.533,0.000,234.39
33.550,0.020,234.69
33.567,0.089,235.00
33.583,0.062,235.30
33.600,0.002,235.61
33.617,-0.181,235.91
33.633,-0.290,236.22
33.650,-0.360,236.52
33.667,-0.402,236.82
33.683,-0.303,237.13
33.700,-0.166,237.43
33.717,-0.112,237.74
33.733,-0.038,238.04
33.750,-0.038,238.35
33.767,-0.040,238.65
33.783,-0.070,238.96
33.800,-0.026,239.26
33.817,0.098,239.57
33.833,0.137,239.87
33.850,0.131,240.18
33.867,0.071,240.49
33.883,-0.002,240.79
33.900,0.008,241.10
33.917,0.031,241.40
33.933,-0.053,241.71
33.950,-0.108,242.01
33.967,-0.005,242.32
33.983,0.217,242.63
34.000,0.302,242.93
34.017,0.261,243.24
34.033,0.178,243.54
34.050,0.097,243.85
34.067,0.145,244.16
34.083,0.264,244.46
34.100,0.301,244.77
34.117,0.230,245.08
34.133,0.103,245.38
34.150,0.022,245.69
34.167,-0.073,246.00
34.183,-0.100,246.30
34.200,-0.089,246.61
34.217,-0.111,246.92
34.233,-0.112,247.22
34.250,-0.094,247.53
34.267,-0.184,247.84
34.283,-0.272,248.14
34.300,-0.159,248.45
34.317,0.098,248.76
34.333,0.363,249.06
34.350,0.531,249.37
34.367,0.516,249.68
34.383,0.295,249.99
34.400,0.041,250.29
34.417,-0.096,250.60
34.433,-0.195,250.91
34.450,-0.230,251.22
34.467,-0.204,251.52
34.483,-0.206,251.83
34.500,-0.184,252.14
34.517,-0.085,252.45
34.533,0.013,252.76
34.550,-0.048,253.06
34.567,-0.189,253.37
34.583,-0.286,253.68
34.600,-0.332,253.99
34.617,-0.243,254.30
34.633,-0.062,254.60
34.650,0.049,254.91
34.667,0.022,255.22
34.683,-0.113,255.53
34.700,-0.289,255.84
34.717,-0.368,256.15
34.733,-0.383,256.46
34.750,-0.354,256.76
34.767,-0.342,257.07
34.783,-0.348,257.38
34.800,-0.309,257.69
34.817,-0.296,258.00
34.833,-0.376,258.31
34.850,-0.436,258.62
34.867,-0.409,258.93
34.883,-0.329,259.24
34.900,-0.300,259.54
34.917,-0.318,259.85
34.933,-0.435,260.16
34.950,-0.511,260.47
34.967,-0.426,260.78
34.983,-0.270,261.09
35.000,-0.169,261.40
35.017,-0.168,261.71
35.033,-0.277,262.02
35.050,-0.414,262.33
35.067,-0.404,262.64
35.083,-0.359,262.95
35.100,-0.340,263.26
35.117,-0.399,263.57
35.133,-0.457,263.88
35.150,-0.430,264.19
35.167,-0.324,264.50
35.183,-0.275,264.81
35.200,-0.275,265.12
35.217,-0.324,265.43
35.233,-0.430,265.74
35.250,-0.501,266.05
35.267,-0.568,266.36
35.283,-0.559,266.67
35.300,-0.333,266.98
35.317,-0.001,267.29
35.333,0.167,267.60
35.350,0.121,267.91
35.367,-0.020,268.22
35.383,-0.219,268.53
35.400,-0.381,268.84
35.417,-0.299,269.15
35.433,-0.307,269.46
35.450,-0.319,269.77
35.467,-0.310,270.09
35.483,-0.312,270.40
35.500,-0.348,270.71
35.517,-0.201,271.02
35.533,-0.037,271.33
35.550,0.115,271.64
35.567,0.165,271.95
35.583,0.190,272.26
35.600,0.044,272.57
35.617,-0.102,272.88
35.633,-0.177,273.20
35.650,-0.252,273.51
35.667,-0.204,273.82
35.683,-0.075,274.13
35.700,0.006,274.44
35.717,0.011,274.75
35.733,-0.051,275.06
35.750,-0.010,275.38
35.767,0.104,275.69
35.783,0.183,276.00
35.800,0.361,276.31
35.817,1.049,276.62
35.833,2.075,276.93
35.850,3.042,277.25
35.867,3.472,277.56
35.883,3.216,277.87
35.900,2.871,278.18
35.917,2.987,278.49
35.933,3.451,278.81
35.950,3.465,279.12
35.967,2.831,279.43
35.983,1.935,279.74
36.000,1.181,280.05
36.017,0.736,280.37
36.033,0.514,280.68
36.050,0.318,280.99
36.067,0.137,281.30
36.083,0.123,281.62
36.100,0.320,281.93
36.117,0.442,282.24
36.133,0.465,282.55
36.150,0.375,282.87
36.167,0.194,283.18
36.183,-0.040,283.49
36.200,-0.148,283.80
36.217,-0.184,284.12
36.233,-0.147,284.43
36.250,-0.079,284.74
36.267,-0.075,285.05
36.283,-0.098,285.37
36.300,-0.092,285.68
36.317,-0.112,285.99
36.333,-0.096,286.31
36.350,0.000,286.62
36.367,0.211,286.93
36.383,0.398,287.25
36.400,0.421,287.56
36.417,0.332,287.87
36.433,0.150,288.18
36.450,-0.006,288.50
36.467,-0.074,288.81
36.483,-0.039,289.12
36.500,0.013,289.44
36.517,-0.015,289.75
36.533,-0.047,290.06
36.550,-0.154,290.38
36.567,-0.273,290.69
36.583,-0.213,291.00
36.600,-0.126,291.32
36.617,-0.123,291.63
36.633,-0.053,291.95
36.650,0.046,292.26
36.667,0.169,292.57
36.683,0.246,292.89
36.700,0.248,293.20
36.717,0.184,293.51
36.733,0.149,293.83
36.750,0.156,294.14
36.767,0.043,294.45
36.783,-0.143,294.77
36.800,-0.214,295.08
36.817,-0.164,295.40
36.833,-0.011,295.71
36.850,0.133,296.02
36.867,0.161,296.34
36.883,0.081,296.65
36.900,-0.036,296.97
36.917,-0.083,297.28
36.933,-0.020,297.59
36.950,0.034,297.91
36.967,-0.004,298.22
36.983,-0.096,298.54
37.000,-0.198,298.85
37.017,-0.235,299.17
37.033,-0.227,299.48
37.050,-0.211,299.79
37.067,-0.217,300.11
37.083,-0.217,300.42
37.100,-0.198,300.74
37.117,-0.158,301.05
37.133,-0.136,301.37
37.150,-0.062,301.68
37.167,-0.062,302.00
37.183,-0.123,302.31
37.200,-0.128,302.62
37.217,-0.020,302.94
37.233,0.088,303.25
37.250,0.092,303.57
37.267,0.024,303.88
37.283,-0.029,304.20
37.300,0.009,304.51
37.317,0.081,304.83
37.333,-0.037,305.14
37.350,-0.215,305.46
37.367,-0.371,305.77
37.383,-0.415,306.09
37.400,-0.354,306.40
37.417,-0.225,306.72
37.433,-0.093,307.03
37.450,-0.042,307.35
37.467,-0.087,307.66
37.483,-0.231,307.98
37.500,-0.333,308.29
37.517,-0.333,308.61
37.533,-0.409,308.92
37.550,-0.438,309.24
37.567,-0.477,309.55
37.583,-0.380,309.87
37.600,-0.174,310.18
37.617,0.011,310.50
37.633,-0.052,310.81
37.650,-0.261,311.13
37.667,-0.444,311.44
37.683,-0.496,311.76
37.700,-0.403,312.07
37.717,-0.264,312.39
37.733,-0.171,312.70
37.750,-0.122,313.02
37.767,-0.136,313.34
37.783,-0.178,313.65
37.800,-0.236,313.97
37.817,-0.268,314.28
37.833,-0.325,314.60
37.850,-0.251,314.91
37.867,-0.186,315.23
37.883,-0.257,315.54
37.900,-0.258,315.86
37.917,-0.199,316.18
37.933,-0.142,316.49
37.950,-0.148,316.81
37.967,-0.141,317.12
37.983,-0.217,317.44
38.000,-0.259,317.75
38.017,-0.207,318.07
38.033,-0.138,318.38
38.050,-0.208,318.70
38.067,-0.287,319.02
38.083,-0.357,319.33
38.100,-0.323,319.65
38.117,-0.202,319.96
38.133,0.020,320.28
38.150,0.068,320.60
38.167,-0.097,320.91
38.183,-0.190,321.23
38.200,-0.020,321.54
38.217,0.175,321.86
38.233,0.376,322.18
38.250,0.304,322.49
38.267,0.033,322.81
38.283,-0.162,323.12
38.300,-0.141,323.44
38.317,-0.099,323.76
38.333,-0.125,324.07
38.350,-0.157,324.39
38.367,-0.313,324.70
38.383,-0.398,325.02
38.400,-0.354,325.34
38.417,-0.321,325.65
38.433,-0.253,325.97
38.450,-0.272,326.28
38.467,-0.275,326.60
38.483,-0.311,326.92
38.500,-0.188,327.23
38.517,-0.083,327.55
38.533,0.012,327.87
38.550,0.122,328.18
38.567,0.101,328.50
38.583,-0.006,328.81
38.600,-0.149,329.13
38.617,-0.215,329.45
38.633,-0.020,329.76
38.650,0.150,330.08
38.667,0.180,330.40
38.683,-0.015,330.71
38.700,-0.289,331.03
38.717,0.042,331.34
38.733,0.826,331.66
38.750,1.396,331.98
38.767,1.256,332.29
38.783,0.673,332.61
38.800,0.133,332.93
38.817,-0.056,333.24
38.833,0.133,333.56
38.850,0.269,333.88
38.867,0.051,334.19
38.883,-0.076,334.51
38.900,-0.126,334.83
38.917,-0.155,335.14
38.933,-0.108,335.46
38.950,0.032,335.78
38.967,0.119,336.09
38.983,0.299,336.41
39.000,0.597,336.73
39.017,0.919,337.04
39.033,1.242,337.36
39.050,1.410,337.67
39.067,1.366,337.99
39.083,1.125,338.31
39.100,0.808,338.62
39.117,0.508,338.94
39.133,0.239,339.26
39.150,0.065,339.57
39.167,0.030,339.89
39.183,0.128,340.21
39.200,0.268,340.52
39.217,0.291,340.84
39.233,0.202,341.16
39.250,0.010,341.48
39.267,-0.163,341.79
39.283,-0.235,342.11
39.300,-0.274,342.43
39.317,-0.247,342.74
39.333,-0.186,343.06
39.350,-0.179,343.38
39.367,-0.243,343.69
39.383,-0.369,344.01
39.400,-0.453,344.33
39.417,-0.418,344.64
39.433,-0.268,344.96
39.450,-0.170,345.28
39.467,-0.122,345.59
39.483,-0.136,345.91
39.500,-0.210,346.23
39.517,-0.269,346.54
39.533,-0.269,346.86
39.550,-0.252,347.18
39.567,-0.205,347.49
39.583,-0.177,347.81
39.600,-0.225,348.13
39.617,-0.323,348.45
39.633,-0.362,348.76
39.650,-0.353,349.08
39.667,-0.275,349.40
39.683,-0.233,349.71
39.700,-0.209,350.03
39.717,-0.198,350.35
39.733,-0.177,350.66
39.750,-0.193,350.98
39.767,-0.158,351.30
39.783,-0.177,351.61
39.800,-0.105,351.93
39.817,0.070,352.25
39.833,0.313,352.57
39.850,0.352,352.88
39.867,0.239,353.20
39.883,0.109,353.52
39.900,0.106,353.83
39.917,0.222,354.15
39.933,0.410,354.47
39.950,0.344,354.78
39.967,0.166,355.10
39.983,-0.066,355.42
40.000,-0.184,355.73
40.017,-0.231,356.05
40.033,-0.218,356.37
40.050,-0.134,356.69
40.067,-0.060,357.00
40.083,-0.119,357.32
40.100,-0.217,357.64
40.117,-0.304,357.95
40.133,-0.292,358.27
40.150,-0.244,358.59
40.167,-0.164,358.90
40.183,-0.110,359.22
40.200,-0.185,359.54
40.217,-0.253,359.86
40.233,-0.276,360.17
40.250,-0.278,360.49
40.267,-0.251,360.81
40.283,-0.244,361.12
40.300,-0.170,361.44
40.317,-0.115,361.76
40.333,0.038,362.07
40.350,0.355,362.39
40.367,0.315,362.71
40.383,0.426,363.03
40.400,1.001,363.34
40.417,1.594,363.66
40.433,1.804,363.98
40.450,1.294,364.29
40.467,0.524,364.61
40.483,-0.193,364.93
40.500,-0.349,365.25
40.517,-0.140,365.56
40.533,-0.117,365.88
40.550,-0.238,366.20
40.567,-0.224,366.51
40.583,-0.165,366.83
40.600,-0.036,367.15
40.617,-0.035,367.46
40.633,-0.110,367.78
40.650,-0.249,368.10
40.667,-0.401,368.41
40.683,-0.419,368.73
40.700,-0.334,369.05
40.717,-0.288,369.37
40.733,-0.238,369.68
40.750,-0.203,370.00
40.767,-0.133,370.32
40.783,-0.086,370.63
40.800,-0.109,370.95
40.817,-0.192,371.27
40.833,-0.319,371.58
40.850,-0.335,371.90
40.867,-0.302,372.22
40.883,-0.217,372.54
40.900,-0.165,372.85
40.917,-0.182,373.17
40.933,-0.215,373.49
40.950,-0.226,373.80
40.967,-0.214,374.12
40.983,-0.220,374.44
41.000,-0.262,374.75
41.017,-0.272,375.07
41.033,-0.309,375.39
41.050,-0.400,375.70
41.067,-0.302,376.02
41.083,-0.102,376.34
41.100,0.101,376.66
41.117,0.058,376.97
41.133,-0.081,377.29
41.150,-0.222,377.61
41.167,-0.236,377.92
41.183,-0.136,378.24
41.200,-0.142,378.56
41.217,-0.308,378.87
41.233,-0.317,379.19
41.250,-0.212,379.51
41.267,-0.142,379.82
41.283,0.005,380.14
41.300,-0.079,380.46
41.317,-0.642,380.77
41.333,-0.152,381.09
41.350,1.212,381.41
41.367,2.392,381.73
41.383,2.542,382.04
41.400,1.608,382.36
41.417,0.202,382.68
41.433,-0.605,382.99
