VERSION=1.3
ExportFileName=PM HZ 16_2025-05-14_13-24-16_labchip_PURE_Data_E4
SampleLabel=E4
SampleName=PM HZ 16
SampleComment=
SampleAreaConcRatio=0.012623
SampleLowerMarkerTime=12.28
SampleUpperMarkerTime=-1.00
SamplePeakTimes=12.28,15.32,15.67,17.42,17.73,17.98,18.28,18.40,18.55,18.65,18.87,19.00,19.17,19.48,19.85,20.20,20.80,21.17,21.57,22.42,23.08,23.37,24.05,25.65,26.23
SamplePeakSizes=1.298,7.568,8.814,16.999,18.845,20.382,22.322,23.104,24.133,24.833,26.390,27.375,28.634,31.115,34.130,37.149,42.641,46.191,50.229,59.362,67.031,70.421,78.901,100.336,108.657
SamplePeakQuantities=,,,8.8585,2.3476,4.5572,6.5407,50.2170,63.3248,73.1292,14.0338,3.5262,10.7998,6.0707,26.8939,188.9382,191.1575,248.7040,114.8942,182.5261,141.0516,14.6793,27.8277,139.7008,47.6696
PlateFileName=2025-05-14_13-24-16_labchip_PURE
PlateAssayName=HT Protein Express 200
PlateBarCode=N/A
WellAquisitionTime=5/14/2025 1:58:58 PM 
PlateDataFrequency=60
PlateDataStartTime=11.00
PlateDataEndTime=42.00
PlateConcUnits=ng/ul
PlateSizeUnits=kDa
PlateLadderSizes=1.40,15.90,20.40,28.90,48.40,68.40,119.20
ChipID=H296P-0563N-03
Operator=ACJS
DATA
Time,Value,Size
0.000,36.292,0.00
0.017,36.292,0.00
0.033,36.292,0.00
0.050,36.292,0.00
0.067,36.292,0.00
0.083,36.292,0.00
0.100,36.290,0.00
0.117,36.302,0.00
0.133,36.342,0.00
0.150,36.491,0.00
0.167,36.661,0.00
0.183,36.732,0.00
0.200,36.643,0.00
0.217,36.480,0.00
0.233,36.328,0.00
0.250,36.228,0.00
0.267,36.185,0.00
0.283,36.065,0.00
0.300,36.066,0.00
0.317,36.332,0.00
0.333,36.787,0.00
0.350,37.047,0.00
0.367,36.784,0.00
0.383,36.104,0.00
0.400,35.288,0.00
0.417,34.680,0.00
0.433,34.204,0.00
0.450,33.725,0.00
0.467,33.138,0.00
0.483,32.484,0.00
0.500,31.884,0.00
0.517,31.228,0.00
0.533,30.410,0.00
0.550,29.494,0.00
0.567,28.455,0.00
0.583,27.446,0.00
0.600,26.536,0.00
0.617,25.647,0.00
0.633,24.798,0.00
0.650,23.975,0.00
0.667,23.170,0.00
0.683,22.382,0.00
0.700,21.539,0.00
0.717,20.772,0.00
0.733,20.047,0.00
0.750,19.483,0.00
0.767,18.962,0.00
0.783,18.339,0.00
0.800,17.619,0.00
0.817,16.902,0.00
0.833,16.329,0.00
0.850,15.867,0.00
0.867,15.370,0.00
0.883,14.857,0.00
0.900,14.336,0.00
0.917,13.884,0.00
0.933,13.504,0.00
0.950,13.100,0.00
0.967,12.602,0.00
0.983,12.136,0.00
1.000,11.753,0.00
1.017,11.477,0.00
1.033,11.164,0.00
1.050,10.821,0.00
1.067,10.458,0.00
1.083,10.110,0.00
1.100,9.808,0.00
1.117,9.474,0.00
1.133,9.142,0.00
1.150,8.857,0.00
1.167,8.637,0.00
1.183,8.463,0.00
1.200,8.254,0.00
1.217,8.017,0.00
1.233,7.741,0.00
1.250,7.471,0.00
1.267,7.215,0.00
1.283,6.962,0.00
1.300,6.758,0.00
1.317,6.562,0.00
1.333,6.348,0.00
1.350,6.147,0.00
1.367,5.974,0.00
1.383,5.841,0.00
1.400,5.726,0.00
1.417,5.620,0.00
1.433,5.444,0.00
1.450,5.236,0.00
1.467,5.028,0.00
1.483,4.808,0.00
1.500,4.639,0.00
1.517,4.472,0.00
1.533,4.287,0.00
1.550,4.174,0.00
1.567,4.129,0.00
1.583,4.097,0.00
1.600,4.038,0.00
1.617,3.943,0.00
1.633,3.824,0.00
1.650,3.702,0.00
1.667,3.590,0.00
1.683,3.489,0.00
1.700,3.365,0.00
1.717,3.258,0.00
1.733,3.156,0.00
1.750,3.016,0.00
1.767,2.908,0.00
1.783,2.777,0.00
1.800,2.690,0.00
1.817,2.593,0.00
1.833,2.503,0.00
1.850,2.436,0.00
1.867,2.354,0.00
1.883,2.216,0.00
1.900,2.032,0.00
1.917,1.871,0.00
1.933,1.767,0.00
1.950,1.657,0.00
1.967,1.597,0.00
1.983,1.486,0.00
2.000,1.448,0.00
2.017,1.357,0.00
2.033,1.278,0.00
2.050,1.170,0.00
2.067,1.046,0.00
2.083,0.959,0.00
2.100,0.846,0.00
2.117,0.768,0.00
2.133,0.723,0.00
2.150,0.603,0.00
2.167,0.513,0.00
2.183,0.386,0.00
2.200,0.290,0.00
2.217,0.194,0.00
2.233,0.075,0.00
2.250,-0.076,0.00
2.267,-0.203,0.00
2.283,-0.274,0.00
2.300,-0.270,0.00
2.317,-0.283,0.00
2.333,-0.328,0.00
2.350,-0.429,0.00
2.367,-0.525,0.00
2.383,-0.599,0.00
2.400,-0.644,0.00
2.417,-0.672,0.00
2.433,-0.693,0.00
2.450,-0.800,0.00
2.467,-0.925,0.00
2.483,-1.077,0.00
2.500,-1.238,0.00
2.517,-1.328,0.00
2.533,-1.332,0.00
2.550,-1.328,0.00
2.567,-1.340,0.00
2.583,-1.384,0.00
2.600,-1.440,0.00
2.617,-1.506,0.00
2.633,-1.546,0.00
2.650,-1.602,0.00
2.667,-1.673,0.00
2.683,-1.720,0.00
2.700,-1.793,0.00
2.717,-1.873,0.00
2.733,-1.950,0.00
2.750,-2.015,0.00
2.767,-2.035,0.00
2.783,-2.072,0.00
2.800,-2.164,0.00
2.817,-2.283,0.00
2.833,-2.417,0.00
2.850,-2.503,0.00
2.867,-2.550,0.00
2.883,-2.599,0.00
2.900,-2.696,0.00
2.917,-2.779,0.00
2.933,-2.833,0.00
2.950,-2.869,0.00
2.967,-2.920,0.00
2.983,-2.989,0.00
3.000,-3.045,0.00
3.017,-3.072,0.00
3.033,-3.113,0.00
3.050,-3.193,0.00
3.067,-3.280,0.00
3.083,-3.331,0.00
3.100,-3.443,0.00
3.117,-3.498,0.00
3.133,-3.601,0.00
3.150,-3.677,0.00
3.167,-3.693,0.00
3.183,-3.693,0.00
3.200,-3.762,0.00
3.217,-3.856,0.00
3.233,-3.888,0.00
3.250,-3.916,0.00
3.267,-3.978,0.00
3.283,-4.002,0.00
3.300,-4.095,0.00
3.317,-4.158,0.00
3.333,-4.223,0.00
3.350,-4.247,0.00
3.367,-4.346,0.00
3.383,-4.409,0.00
3.400,-4.435,0.00
3.417,-4.441,0.00
3.433,-4.507,0.00
3.450,-4.766,0.00
3.467,-5.253,0.00
3.483,-5.852,0.00
3.500,-6.440,0.00
3.517,-6.954,0.00
3.533,-7.402,0.00
3.550,-7.802,0.00
3.567,-8.136,0.00
3.583,-8.381,0.00
3.600,-8.563,0.00
3.617,-8.737,0.00
3.633,-8.894,0.00
3.650,-9.027,0.00
3.667,-9.168,0.00
3.683,-9.281,0.00
3.700,-9.344,0.00
3.717,-9.385,0.00
3.733,-9.394,0.00
3.750,-9.447,0.00
3.767,-9.517,0.00
3.783,-9.600,0.00
3.800,-9.654,0.00
3.817,-9.697,0.00
3.833,-9.747,0.00
3.850,-9.793,0.00
3.867,-9.827,0.00
3.883,-9.804,0.00
3.900,-9.798,0.00
3.917,-9.846,0.00
3.933,-9.886,0.00
3.950,-9.908,0.00
3.967,-9.890,0.00
3.983,-9.840,0.00
4.000,-9.781,0.00
4.017,-9.736,0.00
4.033,-9.694,0.00
4.050,-9.649,0.00
4.067,-9.677,0.00
4.083,-9.738,0.00
4.100,-9.778,0.00
4.117,-9.823,0.00
4.133,-9.871,0.00
4.150,-9.924,0.00
4.167,-9.992,0.00
4.183,-10.016,0.00
4.200,-9.991,0.00
4.217,-9.948,0.00
4.233,-9.904,0.00
4.250,-9.885,0.00
4.267,-9.918,0.00
4.283,-10.038,0.00
4.300,-10.142,0.00
4.317,-10.184,0.00
4.333,-10.188,0.00
4.350,-10.127,0.00
4.367,-10.117,0.00
4.383,-10.168,0.00
4.400,-10.224,0.00
4.417,-10.281,0.00
4.433,-10.298,0.00
4.450,-10.291,0.00
4.467,-10.296,0.00
4.483,-10.313,0.00
4.500,-10.342,0.00
4.517,-10.273,0.00
4.533,-10.236,0.00
4.550,-10.248,0.00
4.567,-10.251,0.00
4.583,-10.243,0.00
4.600,-10.199,0.00
4.617,-10.135,0.00
4.633,-10.148,0.00
4.650,-10.178,0.00
4.667,-10.196,0.00
4.683,-10.142,0.00
4.700,-10.114,0.00
4.717,-10.066,0.00
4.733,-9.983,0.00
4.750,-9.987,0.00
4.767,-9.970,0.00
4.783,-9.952,0.00
4.800,-9.916,0.00
4.817,-9.850,0.00
4.833,-9.782,0.00
4.850,-9.667,0.00
4.867,-9.516,0.00
4.883,-9.280,0.00
4.900,-9.022,0.00
4.917,-8.823,0.00
4.933,-8.584,0.00
4.950,-8.355,0.00
4.967,-8.055,0.00
4.983,-7.812,0.00
5.000,-7.578,0.00
5.017,-7.341,0.00
5.033,-7.106,0.00
5.050,-6.812,0.00
5.067,-6.489,0.00
5.083,-6.219,0.00
5.100,-5.989,0.00
5.117,-5.767,0.00
5.133,-5.515,0.00
5.150,-5.250,0.00
5.167,-4.995,0.00
5.183,-4.832,0.00
5.200,-4.726,0.00
5.217,-4.595,0.00
5.233,-4.448,0.00
5.250,-4.285,0.00
5.267,-4.133,0.00
5.283,-4.038,0.00
5.300,-3.969,0.00
5.317,-3.896,0.00
5.333,-3.818,0.00
5.350,-3.752,0.00
5.367,-3.632,0.00
5.383,-3.486,0.00
5.400,-3.385,0.00
5.417,-3.351,0.00
5.433,-3.380,0.00
5.450,-3.458,0.00
5.467,-3.528,0.00
5.483,-3.541,0.00
5.500,-3.599,0.00
5.517,-3.776,0.00
5.533,-4.109,0.00
5.550,-4.579,0.00
5.567,-5.059,0.00
5.583,-5.361,0.00
5.600,-5.400,0.00
5.617,-5.285,0.00
5.633,-5.135,0.00
5.650,-5.024,0.00
5.667,-4.955,0.00
5.683,-4.857,0.00
5.700,-4.756,0.00
5.717,-4.695,0.00
5.733,-4.682,0.00
5.750,-4.718,0.00
5.767,-4.728,0.00
5.783,-4.689,0.00
5.800,-4.636,0.00
5.817,-4.585,0.00
5.833,-4.567,0.00
5.850,-4.553,0.00
5.867,-4.572,0.00
5.883,-4.613,0.00
5.900,-4.702,0.00
5.917,-4.796,0.00
5.933,-4.806,0.00
5.950,-4.764,0.00
5.967,-4.716,0.00
5.983,-4.686,0.00
6.000,-4.736,0.00
6.017,-4.819,0.00
6.033,-4.829,0.00
6.050,-4.853,0.00
6.067,-4.951,0.00
6.083,-5.056,0.00
6.100,-5.155,0.00
6.117,-5.302,0.00
6.133,-5.385,0.00
6.150,-5.366,0.00
6.167,-5.319,0.00
6.183,-5.323,0.00
6.200,-5.357,0.00
6.217,-5.424,0.00
6.233,-5.518,0.00
6.250,-5.544,0.00
6.267,-5.513,0.00
6.283,-5.546,0.00
6.300,-5.573,0.00
6.317,-5.603,0.00
6.333,-5.598,0.00
6.350,-5.684,0.00
6.367,-5.789,0.00
6.383,-5.865,0.00
6.400,-5.952,0.00
6.417,-5.959,0.00
6.433,-5.897,0.00
6.450,-5.861,0.00
6.467,-5.897,0.00
6.483,-5.975,0.00
6.500,-6.084,0.00
6.517,-6.194,0.00
6.533,-6.294,0.00
6.550,-6.380,0.00
6.567,-6.469,0.00
6.583,-6.590,0.00
6.600,-7.766,0.00
6.617,-8.822,0.00
6.633,5.544,0.00
6.650,5.437,0.00
6.667,-31.623,0.00
6.683,-9.528,0.00
6.700,197.578,0.00
6.717,638.811,0.00
6.733,1409.504,0.00
6.750,2295.877,0.00
6.767,2986.943,0.00
6.783,3317.568,0.00
6.800,3342.295,0.00
6.817,3215.368,0.00
6.833,3104.914,0.00
6.850,3094.365,0.00
6.867,3099.048,0.00
6.883,3065.175,0.00
6.900,3064.969,0.00
6.917,3068.332,0.00
6.933,3074.120,0.00
6.950,3078.994,0.00
6.967,3081.741,0.00
6.983,3083.637,0.00
7.000,3085.279,0.00
7.017,3086.834,0.00
7.033,3088.067,0.00
7.050,3088.674,0.00
7.067,3089.580,0.00
7.083,3091.748,0.00
7.100,3094.528,0.00
7.117,3095.263,0.00
7.133,3094.126,0.00
7.150,3092.781,0.00
7.167,3091.739,0.00
7.183,3091.398,0.00
7.200,3091.962,0.00
7.217,3092.078,0.00
7.233,3091.012,0.00
7.250,3089.923,0.00
7.267,3088.963,0.00
7.283,3088.150,0.00
7.300,3087.852,0.00
7.317,3087.083,0.00
7.333,3086.601,0.00
7.350,3087.084,0.00
7.367,3087.650,0.00
7.383,3086.271,0.00
7.400,3083.475,0.00
7.417,3078.774,0.00
7.433,3072.640,0.00
7.450,3067.024,0.00
7.467,3061.597,0.00
7.483,3055.604,0.00
7.500,3049.309,0.00
7.517,3043.000,0.00
7.533,3036.250,0.00
7.550,3029.131,0.00
7.567,3023.056,0.00
7.583,3015.986,0.00
7.600,3008.543,0.00
7.617,3001.419,0.00
7.633,2994.628,0.00
7.650,2989.797,0.00
7.667,2985.137,0.00
7.683,2979.704,0.00
7.700,2973.436,0.00
7.717,2966.312,0.00
7.733,2960.420,0.00
7.750,2954.238,0.00
7.767,2948.732,0.00
7.783,2941.750,0.00
7.800,2934.376,0.00
7.817,2928.451,0.00
7.833,2923.987,0.00
7.850,2919.635,0.00
7.867,2914.256,0.00
7.883,2907.308,0.00
7.900,2901.417,0.00
7.917,2896.249,0.00
7.933,2892.071,0.00
7.950,2887.400,0.00
7.967,2880.548,0.00
7.983,2873.783,0.00
8.000,2867.885,0.00
8.017,2862.711,0.00
8.033,2857.440,0.00
8.050,2852.665,0.00
8.067,2847.410,0.00
8.083,2842.045,0.00
8.100,2836.770,0.00
8.117,2831.630,0.00
8.133,2826.006,0.00
8.150,2820.349,0.00
8.167,2814.071,0.00
8.183,2808.188,0.00
8.200,2803.235,0.00
8.217,2799.493,0.00
8.233,2795.388,0.00
8.250,2790.775,0.00
8.267,2784.951,0.00
8.283,2778.884,0.00
8.300,2773.398,0.00
8.317,2768.696,0.00
8.333,2763.812,0.00
8.350,2758.493,0.00
8.367,2753.240,0.00
8.383,2748.215,0.00
8.400,2743.606,0.00
8.417,2739.879,0.00
8.433,2736.332,0.00
8.450,2732.794,0.00
8.467,2729.373,0.00
8.483,2725.840,0.00
8.500,2722.684,0.00
8.517,2720.979,0.00
8.533,2720.463,0.00
8.550,2720.400,0.00
8.567,2719.685,0.00
8.583,2718.196,0.00
8.600,2716.582,0.00
8.617,2715.353,0.00
8.633,2714.458,0.00
8.650,2713.430,0.00
8.667,2711.986,0.00
8.683,2709.967,0.00
8.700,2708.588,0.00
8.717,2707.677,0.00
8.733,2705.832,0.00
8.750,2703.006,0.00
8.767,2699.268,0.00
8.783,2694.853,0.00
8.800,2691.347,0.00
8.817,2689.134,0.00
8.833,2686.193,0.00
8.850,2683.086,0.00
8.867,2679.118,0.00
8.883,2674.072,0.00
8.900,2668.385,0.00
8.917,2663.383,0.00
8.933,2658.732,0.00
8.950,2654.112,0.00
8.967,2649.993,0.00
8.983,2645.727,0.00
9.000,2641.287,0.00
9.017,2638.183,0.00
9.033,2635.042,0.00
9.050,2632.715,0.00
9.067,2629.626,0.00
9.083,2626.500,0.00
9.100,2622.702,0.00
9.117,2619.607,0.00
9.133,2616.429,0.00
9.150,2613.148,0.00
9.167,2610.313,0.00
9.183,2606.007,0.00
9.200,2600.382,0.00
9.217,2601.562,0.00
9.233,2596.507,0.00
9.250,2585.735,0.00
9.267,2584.725,0.00
9.283,2604.478,0.00
9.300,2666.545,0.00
9.317,2761.885,0.00
9.333,2856.365,0.00
9.350,2914.971,0.00
9.367,2931.549,0.00
9.383,2926.414,0.00
9.400,2912.201,0.00
9.417,2904.636,0.00
9.433,2903.530,0.00
9.450,2896.998,0.00
9.467,2891.076,0.00
9.483,2882.287,0.00
9.500,2871.962,0.00
9.517,2861.262,0.00
9.533,2851.231,0.00
9.550,2844.324,0.00
9.567,2835.882,0.00
9.583,2824.151,0.00
9.600,2813.619,0.00
9.617,2807.788,0.00
9.633,2814.882,0.00
9.650,2831.140,0.00
9.667,2841.180,0.00
9.683,2833.406,0.00
9.700,2812.743,0.00
9.717,2784.629,0.00
9.733,2764.900,0.00
9.750,2771.901,0.00
9.767,2811.038,0.00
9.783,2888.589,0.00
9.800,2977.306,0.00
9.817,3042.409,0.00
9.833,3115.931,0.00
9.850,3165.103,0.00
9.867,3116.800,0.00
9.883,2886.696,0.00
9.900,2444.691,0.00
9.917,1904.944,0.00
9.933,1406.624,0.00
9.950,1026.862,0.00
9.967,727.985,0.00
9.983,478.470,0.00
10.000,291.581,0.00
10.017,162.883,0.00
10.033,100.491,0.00
10.050,61.882,0.00
10.067,22.872,0.00
10.083,-0.706,0.00
10.100,-11.801,0.00
10.117,-13.447,0.00
10.133,-11.889,0.00
10.150,-10.104,0.00
10.167,-8.115,0.00
10.183,-6.388,0.00
10.200,-5.149,0.00
10.217,-4.237,0.00
10.233,-3.593,0.00
10.250,-3.167,0.00
10.267,-2.925,0.00
10.283,-2.683,0.00
10.300,-2.417,0.00
10.317,-2.218,0.00
10.333,-2.075,0.00
10.350,-1.914,0.00
10.367,-1.629,0.00
10.383,-1.654,0.00
10.400,-1.233,0.00
10.417,0.739,0.00
10.433,3.606,0.00
10.450,5.449,0.00
10.467,5.063,0.00
10.483,2.709,0.00
10.500,-0.124,0.00
10.517,-1.735,0.00
10.533,-1.849,0.00
10.550,-1.950,0.00
10.567,-2.222,0.00
10.583,-2.221,0.00
10.600,-2.169,0.00
10.617,-2.283,0.00
10.633,-2.298,0.00
10.650,-2.089,0.00
10.667,-1.816,0.00
10.683,-1.496,0.00
10.700,-1.408,0.00
10.717,-1.520,0.00
10.733,-1.640,0.00
10.750,-1.628,0.00
10.767,-1.624,0.00
10.783,-1.685,0.00
10.800,-1.569,0.00
10.817,-1.258,0.00
10.833,-0.950,0.00
10.850,-0.819,0.00
10.867,-0.998,0.00
10.883,-1.033,0.00
10.900,-1.340,0.00
10.917,-1.425,0.00
10.933,-0.430,0.00
10.950,1.025,0.00
10.967,2.075,0.00
10.983,2.067,0.00
11.000,1.220,0.00
11.017,-0.636,0.00
11.033,-0.962,0.00
11.050,1.268,0.00
11.067,3.776,0.00
11.083,4.893,0.00
11.100,4.097,0.00
11.117,1.888,0.00
11.133,-0.016,0.00
11.150,-0.400,0.00
11.167,0.161,0.00
11.183,0.150,0.00
11.200,0.184,0.00
11.217,0.373,0.00
11.233,0.491,0.00
11.250,0.499,0.00
11.267,0.476,0.00
11.283,0.550,0.00
11.300,0.672,0.00
11.317,0.717,0.00
11.333,0.673,0.00
11.350,0.595,0.00
11.367,0.541,0.00
11.383,0.528,0.00
11.400,0.492,0.00
11.417,0.436,0.00
11.433,0.476,0.00
11.450,0.618,0.00
11.467,0.807,0.00
11.483,1.278,0.00
11.500,2.020,0.00
11.517,2.411,0.00
11.533,1.946,0.00
11.550,0.677,0.00
11.567,-0.745,0.00
11.583,-1.530,0.00
11.600,-1.513,0.00
11.617,-1.261,0.00
11.633,-1.311,0.00
11.650,-1.434,0.00
11.667,-1.410,0.00
11.683,-1.259,0.00
11.700,-1.109,0.00
11.717,-1.136,0.00
11.733,-1.149,0.00
11.750,-0.956,0.00
11.767,-0.755,0.00
11.783,-0.710,0.00
11.800,-0.903,0.00
11.817,-1.164,0.00
11.833,-1.336,0.00
11.850,-1.230,0.00
11.867,-1.039,0.00
11.883,-1.006,0.00
11.900,-1.078,0.00
11.917,-1.184,0.00
11.933,-1.313,0.00
11.950,-1.340,0.00
11.967,-1.306,0.00
11.983,-1.267,0.00
12.000,-1.233,0.00
12.017,-1.163,0.00
12.033,-1.176,0.00
12.050,-1.257,0.00
12.067,-1.465,0.00
12.083,-1.527,0.00
12.100,0.097,0.00
12.117,5.395,0.00
12.133,5.022,0.00
12.150,-7.699,0.00
12.167,40.514,0.00
12.183,293.318,0.00
12.200,748.508,0.00
12.217,1158.327,0.00
12.233,1240.681,0.00
12.250,931.131,0.00
12.267,447.987,0.00
12.283,88.861,0.00
12.300,-24.283,0.00
12.317,-3.896,0.00
12.333,9.888,0.00
12.350,1.684,1.42
12.367,-2.038,1.44
12.383,-1.572,1.45
12.400,-1.233,1.47
12.417,-1.627,1.49
12.433,-0.992,1.51
12.450,0.904,1.53
12.467,2.723,1.55
12.483,3.141,1.56
12.500,1.823,1.58
12.517,-0.258,1.60
12.533,-1.626,1.62
12.550,-1.333,1.64
12.567,-0.451,1.66
12.583,-0.226,1.68
12.600,-0.251,1.70
12.617,-0.640,1.72
12.633,-0.990,1.74
12.650,-1.039,1.76
12.667,-0.897,1.78
12.683,-0.827,1.80
12.700,-0.954,1.83
12.717,-1.109,1.85
12.733,-1.181,1.87
12.750,-1.186,1.89
12.767,-1.277,1.91
12.783,-1.304,1.93
12.800,-1.202,1.96
12.817,-1.074,1.98
12.833,-0.918,2.00
12.850,-0.790,2.02
12.867,-0.735,2.05
12.883,-0.768,2.07
12.900,-0.905,2.09
12.917,-1.068,2.12
12.933,-1.108,2.14
12.950,-1.048,2.16
12.967,-0.999,2.19
12.983,-0.987,2.21
13.000,-0.978,2.24
13.017,-0.937,2.26
13.033,-0.824,2.29
13.050,-0.750,2.31
13.067,-0.786,2.34
13.083,-0.802,2.36
13.100,-0.774,2.39
13.117,-0.690,2.41
13.133,-0.539,2.44
13.150,-0.420,2.47
13.167,-0.394,2.49
13.183,-0.448,2.52
13.200,-0.521,2.55
13.217,-0.601,2.57
13.233,-0.638,2.60
13.250,-0.668,2.63
13.267,-0.627,2.66
13.283,-0.552,2.68
13.300,-0.351,2.71
13.317,-0.363,2.74
13.333,-0.346,2.77
13.350,-0.168,2.80
13.367,0.063,2.83
13.383,0.151,2.86
13.400,-0.017,2.88
13.417,-0.270,2.91
13.433,-0.355,2.94
13.450,-0.232,2.97
13.467,-0.023,3.00
13.483,-0.219,3.03
13.500,-0.292,3.06
13.517,-0.254,3.10
13.533,-0.224,3.13
13.550,-0.228,3.16
13.567,-0.276,3.19
13.583,-0.177,3.22
13.600,0.048,3.25
13.617,0.257,3.29
13.633,0.359,3.32
13.650,0.325,3.35
13.667,0.294,3.38
13.683,0.321,3.42
13.700,0.308,3.45
13.717,0.306,3.48
13.733,0.275,3.52
13.750,0.190,3.55
13.767,0.127,3.59
13.783,0.095,3.62
13.800,0.125,3.65
13.817,0.052,3.69
13.833,0.046,3.72
13.850,0.065,3.76
13.867,0.142,3.80
13.883,0.206,3.83
13.900,0.190,3.87
13.917,0.133,3.90
13.933,0.130,3.94
13.950,0.171,3.98
13.967,0.195,4.01
13.983,0.122,4.05
14.000,0.110,4.09
14.017,0.149,4.13
14.033,0.256,4.16
14.050,0.317,4.20
14.067,0.298,4.24
14.083,0.329,4.28
14.100,0.353,4.32
14.117,0.345,4.36
14.133,0.361,4.40
14.150,0.289,4.44
14.167,0.278,4.48
14.183,0.323,4.52
14.200,0.346,4.56
14.217,0.303,4.60
14.233,0.217,4.64
14.250,0.272,4.68
14.267,0.398,4.72
14.283,0.557,4.76
14.300,0.683,4.81
14.317,0.638,4.85
14.333,0.511,4.89
14.350,0.471,4.93
14.367,0.549,4.98
14.383,0.591,5.02
14.400,0.558,5.06
14.417,0.493,5.11
14.433,0.402,5.15
14.450,0.329,5.19
14.467,0.346,5.24
14.483,0.278,5.28
14.500,0.152,5.33
14.517,0.244,5.37
14.533,0.418,5.42
14.550,0.495,5.46
14.567,0.440,5.51
14.583,0.350,5.56
14.600,0.422,5.60
14.617,0.736,5.65
14.633,1.297,5.70
14.650,1.710,5.74
14.667,1.891,5.79
14.683,1.899,5.84
14.700,1.802,5.89
14.717,1.820,5.94
14.733,1.775,5.98
14.750,1.157,6.03
14.767,0.837,6.08
14.783,1.452,6.13
14.800,2.653,6.18
14.817,3.460,6.23
14.833,3.077,6.28
14.850,1.717,6.33
14.867,0.432,6.38
14.883,0.268,6.43
14.900,0.900,6.49
14.917,1.432,6.54
14.933,2.206,6.59
14.950,2.966,6.64
14.967,3.841,6.69
14.983,4.564,6.75
15.000,5.013,6.80
15.017,5.232,6.85
15.033,5.271,6.91
15.050,5.099,6.96
15.067,4.866,7.01
15.083,4.643,7.07
15.100,4.457,7.12
15.117,4.350,7.18
15.133,4.625,7.23
15.150,5.170,7.29
15.167,5.930,7.34
15.183,6.963,7.40
15.200,8.372,7.46
15.217,9.805,7.51
15.233,10.696,7.57
15.250,10.367,7.63
15.267,8.827,7.68
15.283,6.834,7.74
15.300,5.349,7.80
15.317,4.703,7.86
15.333,4.582,7.92
15.350,4.885,7.98
15.367,5.510,8.04
15.383,6.281,8.09
15.400,6.912,8.15
15.417,7.374,8.21
15.433,7.614,8.27
15.450,7.928,8.34
15.467,9.344,8.40
15.483,12.481,8.46
15.500,16.280,8.52
15.517,23.698,8.58
15.533,39.270,8.64
15.550,61.306,8.71
15.567,80.381,8.77
15.583,86.141,8.83
15.600,74.913,8.89
15.617,52.785,8.96
15.633,31.151,9.02
15.650,16.516,9.09
15.667,7.280,9.15
15.683,1.178,9.21
15.700,-2.679,9.28
15.717,-4.779,9.34
15.733,-5.677,9.41
15.750,-5.770,9.48
15.767,-5.470,9.54
15.783,-5.092,9.61
15.800,-4.665,9.68
15.817,-4.292,9.74
15.833,-4.088,9.81
15.850,-4.006,9.88
15.867,-4.012,9.95
15.883,-3.966,10.01
15.900,-3.815,10.08
15.917,-3.658,10.15
15.933,-3.627,10.22
15.950,-3.693,10.29
15.967,-3.686,10.36
15.983,-3.516,10.43
16.000,-3.184,10.50
16.017,-2.798,10.57
16.033,-2.491,10.64
16.050,-2.284,10.71
16.067,-2.017,10.78
16.083,-1.585,10.86
16.100,-1.018,10.93
16.117,-0.553,11.00
16.133,-0.288,11.07
16.150,-0.050,11.15
16.167,0.463,11.22
16.183,1.370,11.29
16.200,2.608,11.37
16.217,4.071,11.44
16.233,5.780,11.52
16.250,7.470,11.59
16.267,8.532,11.67
16.283,8.063,11.74
16.300,5.911,11.82
16.317,2.898,11.90
16.333,0.402,11.97
16.350,-0.708,12.05
16.367,-0.793,12.13
16.383,-0.641,12.20
16.400,-0.562,12.28
16.417,-0.513,12.36
16.433,-0.292,12.44
16.450,0.090,12.52
16.467,0.418,12.59
16.483,0.555,12.67
16.500,0.677,12.75
16.517,0.943,12.83
16.533,1.194,12.91
16.550,1.283,12.99
16.567,1.127,13.08
16.583,0.674,13.16
16.600,0.067,13.24
16.617,-0.330,13.32
16.633,-0.467,13.40
16.650,-0.143,13.48
16.667,0.593,13.57
16.683,1.742,13.65
16.700,3.188,13.73
16.717,4.567,13.82
16.733,5.761,13.90
16.750,6.377,13.99
16.767,6.084,14.07
16.783,4.868,14.15
16.800,2.933,14.24
16.817,1.131,14.33
16.833,0.038,14.41
16.850,-0.222,14.50
16.867,0.116,14.58
16.883,0.608,14.67
16.900,1.164,14.76
16.917,1.671,14.85
16.933,2.166,14.93
16.950,2.454,15.02
16.967,2.393,15.11
16.983,2.219,15.20
17.000,2.067,15.29
17.017,2.007,15.38
17.033,2.123,15.47
17.050,2.217,15.56
17.067,2.303,15.65
17.083,2.507,15.74
17.100,2.908,15.83
17.117,3.361,15.92
17.133,3.914,16.01
17.150,4.558,16.10
17.167,5.253,16.20
17.183,5.809,16.29
17.200,6.411,16.38
17.217,8.008,16.47
17.233,12.267,16.57
17.250,20.826,16.66
17.267,33.069,16.76
17.283,45.294,16.85
17.300,52.201,16.95
17.317,50.492,17.04
17.333,41.320,17.14
17.350,29.142,17.23
17.367,18.851,17.33
17.383,12.509,17.42
17.400,9.333,17.52
17.417,7.679,17.62
17.433,6.503,17.72
17.450,5.653,17.81
17.467,5.283,17.91
17.483,5.485,18.01
17.500,5.954,18.11
17.517,6.318,18.21
17.533,6.321,18.31
17.550,6.228,18.41
17.567,6.876,18.51
17.583,8.716,18.61
17.600,11.405,18.71
17.617,13.642,18.81
17.633,14.146,18.91
17.650,12.651,19.01
17.667,10.090,19.11
17.683,7.816,19.22
17.700,6.598,19.32
17.717,6.500,19.42
17.733,7.298,19.53
17.750,8.529,19.63
17.767,9.840,19.73
17.783,10.902,19.84
17.800,11.775,19.94
17.817,12.691,20.05
17.833,13.705,20.15
17.850,14.808,20.26
17.867,15.760,20.36
17.883,15.900,20.47
17.900,14.842,20.58
17.917,12.513,20.68
17.933,9.523,20.79
17.950,6.930,20.90
17.967,5.581,21.00
17.983,5.694,21.11
18.000,6.995,21.22
18.017,9.283,21.33
18.033,12.000,21.44
18.050,14.517,21.55
18.067,16.139,21.66
18.083,16.936,21.77
18.100,18.422,21.88
18.117,21.920,21.99
18.133,27.586,22.10
18.150,33.129,22.21
18.167,35.959,22.32
18.183,34.847,22.44
18.200,35.975,22.55
18.217,54.148,22.66
18.233,103.677,22.77
18.250,182.711,22.89
18.267,263.572,23.00
18.283,307.888,23.12
18.300,294.908,23.23
18.317,238.470,23.34
18.333,178.197,23.46
18.350,151.870,23.57
18.367,175.690,23.69
18.383,236.778,23.81
18.400,303.627,23.92
18.417,343.046,24.04
18.433,337.766,24.16
18.450,300.713,24.27
18.467,269.454,24.39
18.483,279.175,24.51
18.500,330.992,24.63
18.517,388.882,24.75
18.533,407.948,24.86
18.550,366.680,24.98
18.567,280.750,25.10
18.583,186.107,25.22
18.600,112.057,25.34
18.617,67.403,25.46
18.633,45.673,25.59
18.650,37.250,25.71
18.667,35.818,25.83
18.683,39.403,25.95
18.700,47.049,26.07
18.717,55.759,26.19
18.733,61.070,26.32
18.750,59.425,26.44
18.767,51.011,26.56
18.783,39.392,26.69
18.800,29.000,26.81
18.817,22.417,26.94
18.833,19.609,27.06
18.850,19.148,27.19
18.867,19.551,27.31
18.883,19.759,27.44
18.900,19.335,27.56
18.917,18.504,27.69
18.933,17.751,27.82
18.950,17.669,27.94
18.967,18.487,28.07
18.983,20.037,28.20
19.000,21.862,28.33
19.017,23.351,28.46
19.033,24.126,28.58
19.050,23.956,28.71
19.067,22.829,28.84
19.083,21.192,28.97
19.100,19.379,29.10
19.117,17.984,29.23
19.133,17.175,29.36
19.150,16.849,29.49
19.167,16.522,29.63
19.183,15.893,29.76
19.200,15.221,29.89
19.217,14.314,30.02
19.233,13.825,30.15
19.250,14.264,30.29
19.267,15.349,30.42
19.283,17.009,30.55
19.300,18.693,30.69
19.317,19.954,30.82
19.333,20.549,30.96
19.350,20.643,31.09
19.367,20.405,31.23
19.383,19.804,31.36
19.400,19.589,31.50
19.417,19.707,31.63
19.433,20.117,31.77
19.450,20.677,31.91
19.467,21.692,32.04
19.483,23.323,32.18
19.500,25.638,32.32
19.517,28.348,32.46
19.533,30.648,32.60
19.550,32.489,32.73
19.567,33.674,32.87
19.583,34.467,33.01
19.600,35.176,33.15
19.617,35.702,33.29
19.633,36.089,33.43
19.650,36.219,33.57
19.667,36.512,33.71
19.683,37.136,33.86
19.700,38.008,34.00
19.717,38.804,34.14
19.733,38.640,34.28
19.750,37.039,34.42
19.767,34.288,34.57
19.783,31.347,34.71
19.800,29.292,34.85
19.817,29.327,35.00
19.833,31.910,35.14
19.850,37.033,35.29
19.867,44.068,35.43
19.883,52.080,35.58
19.900,60.028,35.72
19.917,68.059,35.87
19.933,78.986,36.01
19.950,98.727,36.16
19.967,134.815,36.31
19.983,191.148,36.45
20.000,261.849,36.60
20.017,330.656,36.75
20.033,380.437,36.90
20.050,403.165,37.05
20.067,401.545,37.19
20.083,385.060,37.34
20.100,360.800,37.49
20.117,330.837,37.64
20.133,294.974,37.79
20.150,253.808,37.94
20.167,210.198,38.09
20.183,167.855,38.24
20.200,130.437,38.39
20.217,100.046,38.55
20.233,76.866,38.70
20.250,59.855,38.85
20.267,47.176,39.00
20.283,37.858,39.15
20.300,31.194,39.31
20.317,26.340,39.46
20.333,22.998,39.61
20.350,20.786,39.77
20.367,19.151,39.92
20.383,17.961,40.08
20.400,17.355,40.23
20.417,17.514,40.39
20.433,18.761,40.54
20.450,21.614,40.70
20.467,27.142,40.86
20.483,37.011,41.01
20.500,53.654,41.17
20.517,79.342,41.33
20.533,115.141,41.48
20.550,160.930,41.64
20.567,215.101,41.80
20.583,275.573,41.96
20.600,340.053,42.12
20.617,402.555,42.28
20.633,452.970,42.43
20.650,478.850,42.59
20.667,471.089,42.75
20.683,428.813,42.91
20.700,361.310,43.07
20.717,283.867,43.24
20.733,210.282,43.40
20.750,149.434,43.56
20.767,104.480,43.72
20.783,73.858,43.88
20.800,54.766,44.04
20.817,43.805,44.21
20.833,39.136,44.37
20.850,38.033,44.53
20.867,43.110,44.70
20.883,66.002,44.86
20.900,114.779,45.03
20.917,189.612,45.19
20.933,283.814,45.35
20.950,384.839,45.52
20.967,478.990,45.69
20.983,553.055,45.85
21.000,596.273,46.02
21.017,599.073,46.18
21.033,564.101,46.35
21.050,504.289,46.52
21.067,430.711,46.68
21.083,352.578,46.85
21.100,276.575,47.02
21.117,207.555,47.19
21.133,150.727,47.36
21.150,107.980,47.53
21.167,78.994,47.69
21.183,60.640,47.86
21.200,49.688,48.03
21.217,43.334,48.20
21.233,40.403,48.37
21.250,40.266,48.54
21.267,42.772,48.72
21.283,48.331,48.89
21.300,57.437,49.06
21.317,69.978,49.23
21.333,84.626,49.40
21.350,99.677,49.57
21.367,113.014,49.75
21.383,123.173,49.92
21.400,129.043,50.09
21.417,130.265,50.27
21.433,127.320,50.44
21.450,121.267,50.61
21.467,113.461,50.79
21.483,105.069,50.96
21.500,96.720,51.14
21.517,88.823,51.31
21.533,81.610,51.49
21.550,75.678,51.67
21.567,71.408,51.84
21.583,69.104,52.02
21.600,68.328,52.20
21.617,68.272,52.37
21.633,67.778,52.55
21.650,66.103,52.73
21.667,62.810,52.91
21.683,57.859,53.08
21.700,51.935,53.26
21.717,45.731,53.44
21.733,40.031,53.62
21.750,35.437,53.80
21.767,32.200,53.98
21.783,30.257,54.16
21.800,29.173,54.34
21.817,28.614,54.52
21.833,28.168,54.70
21.850,27.703,54.88
21.867,27.156,55.07
21.883,26.313,55.25
21.900,25.144,55.43
21.917,23.880,55.61
21.933,22.848,55.80
21.950,22.255,55.98
21.967,22.223,56.16
21.983,22.825,56.35
22.000,24.175,56.53
22.017,26.465,56.71
22.033,29.847,56.90
22.050,34.872,57.08
22.067,42.623,57.27
22.083,54.026,57.45
22.100,69.555,57.64
22.117,89.397,57.82
22.133,113.211,58.01
22.150,139.871,58.20
22.167,168.722,58.38
22.183,198.987,58.57
22.200,229.624,58.76
22.217,258.772,58.95
22.233,283.254,59.13
22.250,298.448,59.32
22.267,300.846,59.51
22.283,290.181,59.70
22.300,268.132,59.89
22.317,237.722,60.08
22.333,202.416,60.27
22.350,165.051,60.46
22.367,128.930,60.65
22.383,96.812,60.84
22.400,70.730,61.03
22.417,51.110,61.22
22.433,37.381,61.41
22.450,28.623,61.60
22.467,23.293,61.79
22.483,20.265,61.99
22.500,18.303,62.18
22.517,16.996,62.37
22.533,16.487,62.56
22.550,16.987,62.76
22.567,18.809,62.95
22.583,22.203,63.14
22.600,26.891,63.34
22.617,32.580,63.53
22.633,38.324,63.73
22.650,43.601,63.92
22.667,48.295,64.12
22.683,52.796,64.31
22.700,57.840,64.51
22.717,64.350,64.70
22.733,73.477,64.90
22.750,85.872,65.10
22.767,100.948,65.29
22.783,117.324,65.49
22.800,132.548,65.69
22.817,144.952,65.89
22.833,153.326,66.08
22.850,158.091,66.28
22.867,160.208,66.48
22.883,160.239,66.68
22.900,160.363,66.88
22.917,159.779,67.08
22.933,155.632,67.28
22.950,145.854,67.48
22.967,130.395,67.68
22.983,112.268,67.88
23.000,94.449,68.08
23.017,78.569,68.28
23.033,63.986,68.48
23.050,50.070,68.68
23.067,38.438,68.88
23.083,29.738,69.09
23.100,24.600,69.29
23.117,22.835,69.49
23.133,23.502,69.69
23.150,25.640,69.90
23.167,28.007,70.10
23.183,29.650,70.30
23.200,30.122,70.51
23.217,29.430,70.71
23.233,27.723,70.92
23.250,25.178,71.12
23.267,22.022,71.33
23.283,18.515,71.53
23.300,15.037,71.74
23.317,12.098,71.94
23.333,10.108,72.15
23.350,9.127,72.35
23.367,8.916,72.56
23.383,9.081,72.77
23.400,9.357,72.97
23.417,9.601,73.18
23.433,9.759,73.39
23.450,9.773,73.60
23.467,9.741,73.81
23.483,9.721,74.01
23.500,9.700,74.22
23.517,9.867,74.43
23.533,10.228,74.64
23.550,10.713,74.85
23.567,11.091,75.06
23.583,11.454,75.27
23.600,11.765,75.48
23.617,11.816,75.69
23.633,11.625,75.90
23.650,11.220,76.11
23.667,10.875,76.32
23.683,10.813,76.53
23.700,11.068,76.75
23.717,11.951,76.96
23.733,13.383,77.17
23.750,15.844,77.38
23.767,18.937,77.59
23.783,22.399,77.81
23.800,25.760,78.02
23.817,28.535,78.23
23.833,30.558,78.45
23.850,31.907,78.66
23.867,32.327,78.88
23.883,31.622,79.09
23.900,29.582,79.31
23.917,26.703,79.52
23.933,23.086,79.74
23.950,19.443,79.95
23.967,16.097,80.17
23.983,13.046,80.38
24.000,10.209,80.60
24.017,8.103,80.82
24.033,6.399,81.03
24.050,5.024,81.25
24.067,3.908,81.47
24.083,3.138,81.68
24.100,2.566,81.90
24.117,2.134,82.12
24.133,1.977,82.34
24.150,1.877,82.56
24.167,1.666,82.77
24.183,1.506,82.99
24.200,1.381,83.21
24.217,1.315,83.43
24.233,1.315,83.65
24.250,1.392,83.87
24.267,1.435,84.09
24.283,1.347,84.31
24.300,1.407,84.53
24.317,1.559,84.75
24.333,1.939,84.98
24.350,2.386,85.20
24.367,2.756,85.42
24.383,3.272,85.64
24.400,3.928,85.86
24.417,4.519,86.08
24.433,4.873,86.31
24.450,4.922,86.53
24.467,4.786,86.75
24.483,4.596,86.98
24.500,4.582,87.20
24.517,4.485,87.42
24.533,4.355,87.65
24.550,4.435,87.87
24.567,4.685,88.10
24.583,5.168,88.32
24.600,5.970,88.55
24.617,6.841,88.77
24.633,7.489,89.00
24.650,7.793,89.22
24.667,7.843,89.45
24.683,7.792,89.67
24.700,7.726,89.90
24.717,7.512,90.13
24.733,7.012,90.35
24.750,6.254,90.58
24.767,5.432,90.81
24.783,4.650,91.04
24.800,3.991,91.26
24.817,3.456,91.49
24.833,2.999,91.72
24.850,2.606,91.95
24.867,2.270,92.18
24.883,2.076,92.41
24.900,1.971,92.64
24.917,1.817,92.87
24.933,1.611,93.09
24.950,1.392,93.32
24.967,1.199,93.55
24.983,1.107,93.78
25.000,1.092,94.02
25.017,1.018,94.25
25.033,0.963,94.48
25.050,1.070,94.71
25.067,1.214,94.94
25.083,1.247,95.17
25.100,1.266,95.40
25.117,1.319,95.64
25.133,1.340,95.87
25.150,1.556,96.10
25.167,1.909,96.33
25.183,2.327,96.57
25.200,2.817,96.80
25.217,3.433,97.03
25.233,4.167,97.27
25.250,5.175,97.50
25.267,6.764,97.74
25.283,9.025,97.97
25.300,11.727,98.20
25.317,15.630,98.44
25.333,23.804,98.67
25.350,34.671,98.91
25.367,22.971,99.14
25.383,34.388,99.38
25.400,102.632,99.62
25.417,211.384,99.85
25.433,304.419,100.09
25.450,341.711,100.33
25.467,304.776,100.56
25.483,224.507,100.80
25.500,154.282,101.04
25.517,110.022,101.27
25.533,63.946,101.51
25.550,43.421,101.75
25.567,39.200,101.99
25.583,38.380,102.23
25.600,32.692,102.46
25.617,31.320,102.70
25.633,29.736,102.94
25.650,29.250,103.18
25.667,28.845,103.42
25.683,28.433,103.66
25.700,27.817,103.90
25.717,26.739,104.14
25.733,25.248,104.38
25.750,23.406,104.62
25.767,21.518,104.86
25.783,19.449,105.10
25.800,17.383,105.34
25.817,15.393,105.58
25.833,13.857,105.83
25.850,13.132,106.07
25.867,13.241,106.31
25.883,14.053,106.55
25.900,15.893,106.79
25.917,18.754,107.04
25.933,22.532,107.28
25.950,26.659,107.52
25.967,30.597,107.77
25.983,33.843,108.01
26.000,36.269,108.25
26.017,37.791,108.50
26.033,38.323,108.74
26.050,37.877,108.98
26.067,36.558,109.23
26.083,34.425,109.47
26.100,31.794,109.72
26.117,28.927,109.96
26.133,26.299,110.21
26.150,24.164,110.45
26.167,22.566,110.70
26.183,21.616,110.95
26.200,21.182,111.19
26.217,21.065,111.44
26.233,21.123,111.68
26.250,21.193,111.93
26.267,21.040,112.18
26.283,20.585,112.43
26.300,19.884,112.67
26.317,18.770,112.92
26.333,17.296,113.17
26.350,15.606,113.42
26.367,13.754,113.66
26.383,11.897,113.91
26.400,10.130,114.16
26.417,8.483,114.41
26.433,6.929,114.66
26.450,5.615,114.91
26.467,4.613,115.16
26.483,3.833,115.41
26.500,3.132,115.66
26.517,2.585,115.91
26.533,2.190,116.16
26.550,1.912,116.41
26.567,2.037,116.66
26.583,2.561,116.91
26.600,3.046,117.16
26.617,3.146,117.41
26.633,2.694,117.66
26.650,1.888,117.91
26.667,1.126,118.16
26.683,0.871,118.41
26.700,0.826,118.67
26.717,0.681,118.92
26.733,0.584,119.17
26.750,0.518,119.42
26.767,0.500,119.68
26.783,0.430,119.93
26.800,0.341,120.18
26.817,0.250,120.44
26.833,0.226,120.69
26.850,0.341,120.94
26.867,0.432,121.20
26.883,0.575,121.45
26.900,0.731,121.70
26.917,0.997,121.96
26.933,1.444,122.21
26.950,2.027,122.47
26.967,2.747,122.72
26.983,3.570,122.98
27.000,4.481,123.23
27.017,5.592,123.49
27.033,6.677,123.75
27.050,7.723,124.00
27.067,8.479,124.26
27.083,9.038,124.51
27.100,9.181,124.77
27.117,9.083,125.03
27.133,8.920,125.28
27.150,8.665,125.54
27.167,8.068,125.80
27.183,7.306,126.06
27.200,6.290,126.31
27.217,5.250,126.57
27.233,4.350,126.83
27.250,3.627,127.09
27.267,2.849,127.34
27.283,1.942,127.60
27.300,1.167,127.86
27.317,0.633,128.12
27.333,0.284,128.38
27.350,0.224,128.64
27.367,0.208,128.90
27.383,0.138,129.16
27.400,-0.049,129.42
27.417,-0.253,129.68
27.433,-0.348,129.94
27.450,-0.455,130.20
27.467,-0.454,130.46
27.483,-0.395,130.72
27.500,-0.392,130.98
27.517,-0.385,131.24
27.533,-0.388,131.50
27.550,-0.390,131.76
27.567,-0.457,132.02
27.583,-0.556,132.29
27.600,-0.599,132.55
27.617,-0.609,132.81
27.633,-0.569,133.07
27.650,-0.543,133.33
27.667,-0.557,133.60
27.683,-0.522,133.86
27.700,-0.501,134.12
27.717,-0.544,134.39
27.733,-0.606,134.65
27.750,-0.576,134.91
27.767,-0.529,135.18
27.783,-0.572,135.44
27.800,-0.715,135.70
27.817,-0.908,135.97
27.833,-0.916,136.23
27.850,-0.734,136.50
27.867,-0.575,136.76
27.883,-0.533,137.03
27.900,-0.482,137.29
27.917,-0.289,137.56
27.933,-0.051,137.82
27.950,0.169,138.09
27.967,0.287,138.35
27.983,0.336,138.62
28.000,0.453,138.88
28.017,0.615,139.15
28.033,0.819,139.42
28.050,0.949,139.68
28.067,0.934,139.95
28.083,0.792,140.22
28.100,0.635,140.48
28.117,0.568,140.75
28.133,0.562,141.02
28.150,0.453,141.28
28.167,0.243,141.55
28.183,0.025,141.82
28.200,-0.041,142.09
28.217,0.097,142.35
28.233,0.209,142.62
28.250,0.180,142.89
28.267,0.038,143.16
28.283,0.156,143.43
28.300,0.715,143.70
28.317,1.054,143.97
28.333,1.066,144.24
28.350,0.682,144.50
28.367,0.154,144.77
28.383,-0.101,145.04
28.400,-0.218,145.31
28.417,-0.345,145.58
28.433,-0.483,145.85
28.450,-0.429,146.12
28.467,-0.300,146.39
28.483,-0.410,146.66
28.500,-0.493,146.94
28.517,-0.612,147.21
28.533,-0.498,147.48
28.550,-0.328,147.75
28.567,-0.275,148.02
28.583,-0.276,148.29
28.600,-0.237,148.56
28.617,-0.198,148.83
28.633,-0.175,149.11
28.650,-0.311,149.38
28.667,-0.416,149.65
28.683,-0.467,149.92
28.700,-0.419,150.20
28.717,-0.422,150.47
28.733,-0.388,150.74
28.750,-0.413,151.01
28.767,-0.411,151.29
28.783,-0.269,151.56
28.800,-0.438,151.83
28.817,-0.389,152.11
28.833,0.009,152.38
28.850,0.472,152.66
28.867,0.754,152.93
28.883,0.714,153.20
28.900,0.416,153.48
28.917,0.143,153.75
28.933,0.126,154.03
28.950,0.214,154.30
28.967,0.055,154.58
28.983,-0.035,154.85
29.000,-0.149,155.13
29.017,-0.213,155.40
29.033,-0.236,155.68
29.050,-0.265,155.95
29.067,-0.240,156.23
29.083,-0.209,156.51
29.100,-0.232,156.78
29.117,-0.273,157.06
29.133,-0.354,157.33
29.150,-0.357,157.61
29.167,-0.314,157.89
29.183,-0.304,158.16
29.200,-0.354,158.44
29.217,-0.337,158.72
29.233,-0.202,159.00
29.250,-0.088,159.27
29.267,-0.060,159.55
29.283,-0.178,159.83
29.300,-0.304,160.11
29.317,-0.319,160.38
29.333,-0.197,160.66
29.350,-0.046,160.94
29.367,0.040,161.22
29.383,-0.051,161.50
29.400,-0.205,161.77
29.417,-0.253,162.05
29.433,-0.126,162.33
29.450,0.008,162.61
29.467,0.129,162.89
29.483,0.224,163.17
29.500,0.312,163.45
29.517,0.370,163.73
29.533,0.319,164.01
29.550,0.116,164.29
29.567,0.035,164.57
29.583,0.036,164.85
29.600,0.089,165.13
29.617,0.105,165.41
29.633,-0.057,165.69
29.650,-0.056,165.97
29.667,0.187,166.25
29.683,0.605,166.53
29.700,0.933,166.81
29.717,0.992,167.09
29.733,0.819,167.38
29.750,0.550,167.66
29.767,0.563,167.94
29.783,0.742,168.22
29.800,0.654,168.50
29.817,0.548,168.78
29.833,0.337,169.07
29.850,0.175,169.35
29.867,0.207,169.63
29.883,0.318,169.91
29.900,0.348,170.20
29.917,0.096,170.48
29.933,-0.129,170.76
29.950,-0.194,171.04
29.967,-0.156,171.33
29.983,-0.103,171.61
30.000,-0.119,171.89
30.017,-0.163,172.18
30.033,-0.123,172.46
30.050,-0.036,172.75
30.067,0.030,173.03
30.083,-0.029,173.31
30.100,-0.279,173.60
30.117,-0.258,173.88
30.133,0.772,174.17
30.150,2.251,174.45
30.167,3.141,174.74
30.183,2.808,175.02
30.200,1.490,175.31
30.217,0.114,175.59
30.233,-0.420,175.88
30.250,-0.200,176.16
30.267,-0.099,176.45
30.283,-0.320,176.73
30.300,-0.301,177.02
30.317,-0.109,177.30
30.333,0.260,177.59
30.350,0.585,177.87
30.367,0.883,178.16
30.383,1.750,178.45
30.400,3.181,178.73
30.417,4.501,179.02
30.433,4.805,179.31
30.450,3.826,179.59
30.467,2.259,179.88
30.483,0.999,180.17
30.500,0.446,180.45
30.517,0.269,180.74
30.533,0.089,181.03
30.550,-0.023,181.32
30.567,-0.101,181.60
30.583,-0.131,181.89
30.600,-0.141,182.18
30.617,-0.151,182.47
30.633,-0.208,182.75
30.650,-0.335,183.04
30.667,-0.432,183.33
30.683,-0.442,183.62
30.700,-0.401,183.91
30.717,-0.388,184.20
30.733,-0.413,184.49
30.750,-0.395,184.77
30.767,-0.352,185.06
30.783,-0.314,185.35
30.800,-0.360,185.64
30.817,-0.407,185.93
30.833,-0.400,186.22
30.850,-0.334,186.51
30.867,-0.207,186.80
30.883,-0.169,187.09
30.900,-0.176,187.38
30.917,-0.175,187.67
30.933,-0.214,187.96
30.950,-0.175,188.25
30.967,-0.063,188.54
30.983,0.032,188.83
31.000,0.077,189.12
31.017,0.097,189.41
31.033,0.062,189.70
31.050,-0.007,189.99
31.067,-0.055,190.28
31.083,-0.082,190.57
31.100,-0.155,190.86
31.117,-0.189,191.16
31.133,-0.243,191.45
31.150,-0.305,191.74
31.167,-0.390,192.03
31.183,-0.403,192.32
31.200,-0.383,192.61
31.217,-0.215,192.91
31.233,-0.009,193.20
31.250,0.172,193.49
31.267,0.231,193.78
31.283,0.126,194.07
31.300,0.002,194.37
31.317,-0.021,194.66
31.333,-0.097,194.95
31.350,-0.098,195.24
31.367,-0.109,195.54
31.383,-0.058,195.83
31.400,-0.090,196.12
31.417,-0.108,196.42
31.433,-0.140,196.71
31.450,-0.195,197.00
31.467,-0.196,197.30
31.483,-0.186,197.59
31.500,-0.206,197.88
31.517,-0.206,198.18
31.533,-0.132,198.47
31.550,0.049,198.77
31.567,0.016,199.06
31.583,-0.084,199.35
31.600,-0.115,199.65
31.617,0.002,199.94
31.633,0.209,200.24
31.650,0.402,200.53
31.667,0.378,200.83
31.683,0.262,201.12
31.700,0.211,201.42
31.717,0.201,201.71
31.733,0.028,202.01
31.750,-0.193,202.30
31.767,-0.297,202.60
31.783,-0.251,202.89
31.800,-0.138,203.19
31.817,-0.049,203.48
31.833,-0.074,203.78
31.850,-0.078,204.07
31.867,-0.029,204.37
31.883,-0.012,204.67
31.900,-0.090,204.96
31.917,-0.241,205.26
31.933,-0.228,205.55
31.950,0.034,205.85
31.967,0.294,206.15
31.983,0.356,206.44
32.000,0.197,206.74
32.017,-0.042,207.04
32.033,-0.184,207.33
32.050,-0.179,207.63
32.067,-0.135,207.93
32.083,-0.161,208.22
32.100,-0.201,208.52
32.117,-0.244,208.82
32.133,-0.294,209.12
32.150,-0.301,209.41
32.167,-0.240,209.71
32.183,-0.175,210.01
32.200,-0.159,210.31
32.217,-0.194,210.60
32.233,-0.283,210.90
32.250,-0.300,211.20
32.267,-0.217,211.50
32.283,-0.122,211.79
32.300,-0.067,212.09
32.317,-0.081,212.39
32.333,-0.141,212.69
32.350,-0.239,212.99
32.367,-0.207,213.29
32.383,-0.025,213.59
32.400,0.115,213.88
32.417,0.149,214.18
32.433,0.087,214.48
32.450,-0.086,214.78
32.467,-0.279,215.08
32.483,-0.328,215.38
32.500,-0.199,215.68
32.517,-0.106,215.98
32.533,-0.059,216.28
32.550,-0.123,216.58
32.567,-0.213,216.88
32.583,-0.231,217.18
32.600,-0.117,217.48
32.617,0.004,217.78
32.633,0.019,218.08
32.650,-0.034,218.38
32.667,-0.083,218.68
32.683,-0.121,218.98
32.700,-0.107,219.28
32.717,-0.133,219.58
32.733,-0.131,219.88
32.750,-0.139,220.18
32.767,-0.149,220.48
32.783,-0.089,220.78
32.800,-0.029,221.08
32.817,0.064,221.38
32.833,0.001,221.68
32.850,-0.100,221.98
32.867,-0.062,222.28
32.883,-0.005,222.58
32.900,-0.003,222.89
32.917,-0.015,223.19
32.933,-0.047,223.49
32.950,-0.061,223.79
32.967,0.024,224.09
32.983,0.113,224.39
33.000,0.070,224.69
33.017,-0.046,225.00
33.033,-0.146,225.30
33.050,-0.198,225.60
33.067,-0.210,225.90
33.083,-0.106,226.20
33.100,0.043,226.51
33.117,0.105,226.81
33.133,0.122,227.11
33.150,0.030,227.41
33.167,-0.027,227.72
33.183,0.021,228.02
33.200,0.195,228.32
33.217,0.426,228.62
33.233,0.445,228.93
33.250,0.312,229.23
33.267,0.139,229.53
33.283,0.030,229.84
33.300,0.013,230.14
33.317,-0.027,230.44
33.333,-0.068,230.75
33.350,-0.091,231.05
33.367,-0.037,231.35
33.383,0.037,231.66
33.400,0.017,231.96
33.417,-0.062,232.26
33.433,-0.106,232.57
33.450,-0.065,232.87
33.467,0.012,233.17
33.483,0.091,233.48
33.500,0.105,233.78
33.517,0.051,234.09
33.533,0.005,234.39
33.550,-0.016,234.69
33.567,-0.015,235.00
33.583,0.016,235.30
33.600,0.111,235.61
33.617,0.221,235.91
33.633,0.302,236.22
33.650,0.311,236.52
33.667,0.191,236.82
33.683,-0.007,237.13
33.700,-0.130,237.43
33.717,-0.149,237.74
33.733,-0.137,238.04
33.750,-0.089,238.35
33.767,-0.045,238.65
33.783,-0.047,238.96
33.800,-0.032,239.26
33.817,-0.002,239.57
33.833,-0.018,239.87
33.850,-0.055,240.18
33.867,-0.053,240.49
33.883,-0.032,240.79
33.900,0.018,241.10
33.917,0.122,241.40
33.933,0.194,241.71
33.950,0.152,242.01
33.967,0.007,242.32
33.983,-0.202,242.63
34.000,-0.264,242.93
34.017,-0.160,243.24
34.033,-0.082,243.54
34.050,-0.040,243.85
34.067,-0.026,244.16
34.083,-0.047,244.46
34.100,-0.071,244.77
34.117,-0.084,245.08
34.133,-0.164,245.38
34.150,-0.271,245.69
34.167,-0.283,246.00
34.183,-0.263,246.30
34.200,-0.240,246.61
34.217,-0.131,246.92
34.233,-0.025,247.22
34.250,-0.016,247.53
34.267,0.033,247.84
34.283,-0.062,248.14
34.300,-0.143,248.45
34.317,0.019,248.76
34.333,0.221,249.06
34.350,0.312,249.37
34.367,0.275,249.68
34.383,0.148,249.99
34.400,0.022,250.29
34.417,-0.018,250.60
34.433,0.085,250.91
34.450,0.007,251.22
34.467,-0.097,251.52
34.483,-0.162,251.83
34.500,-0.240,252.14
34.517,-0.241,252.45
34.533,-0.230,252.76
34.550,-0.210,253.06
34.567,-0.113,253.37
34.583,-0.176,253.68
34.600,-0.109,253.99
34.617,0.082,254.30
34.633,0.189,254.60
34.650,0.122,254.91
34.667,0.051,255.22
34.683,0.009,255.53
34.700,-0.084,255.84
34.717,-0.099,256.15
34.733,-0.074,256.46
34.750,-0.185,256.76
34.767,-0.209,257.07
34.783,-0.138,257.38
34.800,-0.150,257.69
34.817,-0.221,258.00
34.833,-0.269,258.31
34.850,-0.315,258.62
34.867,-0.368,258.93
34.883,-0.346,259.24
34.900,-0.320,259.54
34.917,-0.331,259.85
34.933,-0.278,260.16
34.950,-0.177,260.47
34.967,-0.126,260.78
34.983,-0.127,261.09
35.000,-0.216,261.40
35.017,-0.319,261.71
35.033,-0.334,262.02
35.050,-0.269,262.33
35.067,-0.225,262.64
35.083,-0.188,262.95
35.100,-0.144,263.26
35.117,-0.161,263.57
35.133,-0.222,263.88
35.150,-0.284,264.19
35.167,-0.344,264.50
35.183,-0.354,264.81
35.200,-0.275,265.12
35.217,-0.188,265.43
35.233,-0.183,265.74
35.250,-0.261,266.05
35.267,-0.355,266.36
35.283,-0.351,266.67
35.300,-0.297,266.98
35.317,-0.235,267.29
35.333,-0.241,267.60
35.350,-0.288,267.91
35.367,-0.243,268.22
35.383,-0.116,268.53
35.400,0.043,268.84
35.417,0.148,269.15
35.433,0.198,269.46
35.450,0.291,269.77
35.467,-0.111,270.09
35.483,-0.411,270.40
35.500,0.489,270.71
35.517,2.364,271.02
35.533,3.859,271.33
35.550,3.849,271.64
35.567,2.400,271.95
35.583,0.612,272.26
35.600,-0.321,272.57
35.617,-0.111,272.88
35.633,-0.086,273.20
35.650,-0.335,273.51
35.667,-0.361,273.82
35.683,-0.299,274.13
35.700,-0.278,274.44
35.717,-0.215,274.75
35.733,-0.175,275.06
35.750,-0.129,275.38
35.767,-0.216,275.69
35.783,-0.209,276.00
35.800,-0.113,276.31
35.817,-0.013,276.62
35.833,0.056,276.93
35.850,-0.005,277.25
35.867,-0.090,277.56
35.883,0.029,277.87
35.900,0.291,278.18
35.917,0.524,278.49
35.933,0.527,278.81
35.950,0.519,279.12
35.967,0.518,279.43
35.983,0.461,279.74
36.000,0.363,280.05
36.017,0.188,280.37
36.033,0.115,280.68
36.050,0.203,280.99
36.067,0.406,281.30
36.083,0.494,281.62
36.100,0.429,281.93
36.117,0.323,282.24
36.133,0.339,282.55
36.150,0.477,282.87
36.167,0.558,283.18
36.183,0.387,283.49
36.200,0.168,283.80
36.217,-0.054,284.12
36.233,-0.125,284.43
36.250,-0.132,284.74
36.267,-0.204,285.05
36.283,-0.252,285.37
36.300,-0.206,285.68
36.317,-0.091,285.99
36.333,-0.093,286.31
36.350,-0.187,286.62
36.367,-0.246,286.93
36.383,-0.197,287.25
36.400,-0.037,287.56
36.417,0.010,287.87
36.433,-0.069,288.18
36.450,-0.162,288.50
36.467,-0.187,288.81
36.483,-0.136,289.12
36.500,-0.070,289.44
36.517,-0.036,289.75
36.533,-0.071,290.06
36.550,-0.078,290.38
36.567,-0.071,290.69
36.583,-0.112,291.00
36.600,-0.174,291.32
36.617,-0.259,291.63
36.633,-0.341,291.95
36.650,-0.338,292.26
36.667,-0.265,292.57
36.683,-0.186,292.89
36.700,-0.157,293.20
36.717,-0.134,293.51
36.733,-0.167,293.83
36.750,-0.161,294.14
36.767,-0.116,294.45
36.783,-0.158,294.77
36.800,-0.126,295.08
36.817,0.011,295.40
36.833,0.159,295.71
36.850,0.199,296.02
36.867,0.120,296.34
36.883,0.052,296.65
36.900,-0.041,296.97
36.917,0.018,297.28
36.933,0.059,297.59
36.950,-0.063,297.91
36.967,-0.136,298.22
36.983,-0.150,298.54
37.000,-0.184,298.85
37.017,-0.238,299.17
37.033,-0.202,299.48
37.050,-0.119,299.79
37.067,-0.111,300.11
37.083,-0.106,300.42
37.100,-0.048,300.74
37.117,0.014,301.05
37.133,0.173,301.37
37.150,0.219,301.68
37.167,0.156,302.00
37.183,0.085,302.31
37.200,0.055,302.62
37.217,0.136,302.94
37.233,0.220,303.25
37.250,0.282,303.57
37.267,0.234,303.88
37.283,0.085,304.20
37.300,0.004,304.51
37.317,-0.012,304.83
37.333,0.360,305.14
37.350,0.645,305.46
37.367,0.885,305.77
37.383,0.827,306.09
37.400,0.480,306.40
37.417,0.210,306.72
37.433,0.107,307.03
37.450,0.174,307.35
37.467,0.181,307.66
37.483,0.011,307.98
37.500,-0.166,308.29
37.517,-0.305,308.61
37.533,-0.162,308.92
37.550,-0.071,309.24
37.567,-0.174,309.55
37.583,-0.322,309.87
37.600,-0.424,310.18
37.617,-0.379,310.50
37.633,-0.301,310.81
37.650,-0.194,311.13
37.667,-0.116,311.44
37.683,-0.088,311.76
37.700,-0.012,312.07
37.717,0.056,312.39
37.733,0.020,312.70
37.750,-0.014,313.02
37.767,0.230,313.34
37.783,0.655,313.65
37.800,1.025,313.97
37.817,1.079,314.28
37.833,0.770,314.60
37.850,0.272,314.91
37.867,-0.067,315.23
37.883,-0.137,315.54
37.900,-0.129,315.86
37.917,-0.152,316.18
37.933,-0.141,316.49
37.950,-0.195,316.81
37.967,-0.279,317.12
37.983,-0.361,317.44
38.000,-0.373,317.75
38.017,-0.339,318.07
38.033,-0.275,318.38
38.050,-0.192,318.70
38.067,-0.140,319.02
38.083,-0.100,319.33
38.100,-0.067,319.65
38.117,-0.086,319.96
38.133,-0.101,320.28
38.150,-0.115,320.60
38.167,-0.074,320.91
38.183,0.011,321.23
38.200,0.108,321.54
38.217,0.127,321.86
38.233,0.077,322.18
38.250,-0.081,322.49
38.267,-0.210,322.81
38.283,-0.095,323.12
38.300,0.256,323.44
38.317,0.513,323.76
38.333,0.460,324.07
38.350,0.120,324.39
38.367,-0.175,324.70
38.383,-0.248,325.02
38.400,-0.096,325.34
38.417,-0.042,325.65
38.433,-0.069,325.97
38.450,-0.113,326.28
38.467,-0.061,326.60
38.483,-0.040,326.92
38.500,-0.080,327.23
38.517,-0.138,327.55
38.533,-0.194,327.87
38.550,-0.217,328.18
38.567,-0.322,328.50
38.583,-0.187,328.81
38.600,0.141,329.13
38.617,0.447,329.45
38.633,0.503,329.76
38.650,0.194,330.08
38.667,-0.207,330.40
38.683,-0.436,330.71
38.700,-0.466,331.03
38.717,-0.373,331.34
38.733,-0.428,331.66
38.750,-0.399,331.98
38.767,-0.383,332.29
38.783,-0.289,332.61
38.800,-0.278,332.93
38.817,-0.134,333.24
38.833,0.151,333.56
38.850,0.380,333.88
38.867,0.512,334.19
38.883,0.444,334.51
38.900,0.178,334.83
38.917,-0.027,335.14
38.933,-0.125,335.46
38.950,-0.184,335.78
38.967,-0.304,336.09
38.983,-0.313,336.41
39.000,-0.297,336.73
39.017,-0.294,337.04
39.033,-0.214,337.36
39.050,-0.208,337.67
39.067,-0.251,337.99
39.083,-0.252,338.31
39.100,-0.325,338.62
39.117,-0.401,338.94
39.133,-0.436,339.26
39.150,-0.487,339.57
39.167,-0.407,339.89
39.183,-0.143,340.21
39.200,0.184,340.52
39.217,0.367,340.84
39.233,0.406,341.16
39.250,0.386,341.48
39.267,0.419,341.79
39.283,0.640,342.11
39.300,0.908,342.43
39.317,0.977,342.74
39.333,0.874,343.06
39.350,0.696,343.38
39.367,0.442,343.69
39.383,0.236,344.01
39.400,0.050,344.33
39.417,-0.152,344.64
39.433,-0.317,344.96
39.450,-0.379,345.28
39.467,-0.337,345.59
39.483,-0.282,345.91
39.500,-0.236,346.23
39.517,-0.235,346.54
39.533,-0.267,346.86
39.550,-0.253,347.18
39.567,-0.222,347.49
39.583,-0.192,347.81
39.600,-0.197,348.13
39.617,-0.257,348.45
39.633,-0.242,348.76
39.650,-0.113,349.08
39.667,0.034,349.40
39.683,0.055,349.71
39.700,-0.097,350.03
39.717,-0.258,350.35
39.733,-0.351,350.66
39.750,-0.336,350.98
39.767,-0.233,351.30
39.783,-0.093,351.61
39.800,0.042,351.93
39.817,0.070,352.25
39.833,0.011,352.57
39.850,-0.032,352.88
39.867,-0.085,353.20
39.883,-0.102,353.52
39.900,-0.160,353.83
39.917,-0.203,354.15
39.933,-0.186,354.47
39.950,-0.116,354.78
39.967,-0.075,355.10
39.983,-0.106,355.42
40.000,-0.086,355.73
40.017,-0.030,356.05
40.033,-0.039,356.37
40.050,-0.004,356.69
40.067,0.114,357.00
40.083,0.344,357.32
40.100,0.443,357.64
40.117,0.328,357.95
40.133,0.082,358.27
40.150,-0.124,358.59
40.167,-0.072,358.90
40.183,-0.001,359.22
40.200,-0.014,359.54
40.217,0.002,359.86
40.233,0.231,360.17
40.250,0.334,360.49
40.267,0.293,360.81
40.283,0.305,361.12
40.300,0.290,361.44
40.317,0.224,361.76
40.333,0.221,362.07
40.350,0.166,362.39
40.367,0.244,362.71
40.383,0.376,363.03
40.400,0.487,363.34
40.417,0.291,363.66
40.433,0.063,363.98
40.450,-0.054,364.29
40.467,-0.068,364.61
40.483,-0.171,364.93
40.500,-0.272,365.25
40.517,-0.260,365.56
40.533,-0.053,365.88
40.550,0.049,366.20
40.567,0.021,366.51
40.583,-0.093,366.83
40.600,-0.170,367.15
40.617,-0.066,367.46
40.633,0.091,367.78
40.650,0.040,368.10
40.667,-0.056,368.41
40.683,-0.076,368.73
40.700,0.123,369.05
40.717,0.394,369.37
40.733,0.512,369.68
40.750,0.409,370.00
40.767,0.285,370.32
40.783,0.286,370.63
40.800,0.332,370.95
40.817,0.323,371.27
40.833,0.251,371.58
40.850,0.126,371.90
40.867,0.014,372.22
40.883,-0.021,372.54
40.900,0.009,372.85
40.917,0.036,373.17
40.933,0.037,373.49
40.950,0.009,373.80
40.967,-0.078,374.12
40.983,-0.143,374.44
41.000,-0.167,374.75
41.017,-0.165,375.07
41.033,-0.108,375.39
41.050,-0.067,375.70
41.067,-0.065,376.02
41.083,-0.090,376.34
41.100,-0.086,376.66
41.117,-0.042,376.97
41.133,0.011,377.29
41.150,0.011,377.61
41.167,-0.149,377.92
41.183,-0.279,378.24
41.200,-0.287,378.56
41.217,-0.261,378.87
41.233,-0.205,379.19
41.250,-0.149,379.51
41.267,-0.160,379.82
41.283,-0.214,380.14
41.300,-0.265,380.46
