VERSION=1.3
ExportFileName=PM HZ 2_2025-05-14_13-24-16_labchip_PURE_Data_B4
SampleLabel=B4
SampleName=PM HZ 2
SampleComment=
SampleAreaConcRatio=0.011875
SampleLowerMarkerTime=12.28
SampleUpperMarkerTime=-1.00
SamplePeakTimes=12.28,15.87,15.95,16.15,16.37,16.60,16.85,17.02,17.40,17.72,17.95,18.22,18.33,18.47,18.57,18.80,18.95,19.12,19.42,19.78,20.07,20.68,20.95,21.45,22.25,22.92,23.97,24.78,25.55,26.13,27.22,28.23
SamplePeakSizes=1.298,9.643,9.978,10.813,11.766,12.850,14.079,14.937,17.029,18.885,20.326,22.050,22.830,23.741,24.438,26.109,27.216,28.477,30.828,33.841,36.274,41.881,44.437,49.436,57.986,65.608,78.481,89.181,99.735,108.072,124.209,140.052
SamplePeakQuantities=,,,,24.0278,7.4225,14.9973,7.0012,96.7363,19.9913,45.2760,61.4333,382.1331,345.3137,628.8239,109.0758,29.6102,85.4635,42.3439,182.5626,1590.0557,1641.8172,2132.1677,1204.7880,2058.1339,1897.5383,294.8024,76.8231,662.1902,418.2104,54.5362,9.4036
PlateFileName=2025-05-14_13-24-16_labchip_PURE
PlateAssayName=HT Protein Express 200
PlateBarCode=N/A
WellAquisitionTime=5/14/2025 1:56:53 PM 
PlateDataFrequency=60
PlateDataStartTime=11.00
PlateDataEndTime=42.00
PlateConcUnits=ng/ul
PlateSizeUnits=kDa
PlateLadderSizes=1.40,15.90,20.40,28.90,48.40,68.40,119.20
ChipID=H296P-0563N-03
Operator=ACJS
DATA
Time,Value,Size
0.000,32.428,0.00
0.017,32.428,0.00
0.033,32.428,0.00
0.050,32.444,0.00
0.067,32.351,0.00
0.083,32.294,0.00
0.100,32.275,0.00
0.117,32.295,0.00
0.133,32.205,0.00
0.150,32.062,0.00
0.167,31.986,0.00
0.183,31.817,0.00
0.200,31.933,0.00
0.217,32.068,0.00
0.233,32.217,0.00
0.250,32.251,0.00
0.267,32.211,0.00
0.283,32.289,0.00
0.300,32.299,0.00
0.317,32.126,0.00
0.333,31.871,0.00
0.350,31.460,0.00
0.367,31.193,0.00
0.383,30.898,0.00
0.400,30.622,0.00
0.417,30.139,0.00
0.433,29.684,0.00
0.450,29.238,0.00
0.467,28.726,0.00
0.483,27.938,0.00
0.500,27.164,0.00
0.517,26.326,0.00
0.533,25.510,0.00
0.550,24.744,0.00
0.567,23.915,0.00
0.583,22.991,0.00
0.600,22.200,0.00
0.617,21.447,0.00
0.633,20.739,0.00
0.650,19.927,0.00
0.667,19.182,0.00
0.683,18.479,0.00
0.700,17.828,0.00
0.717,17.260,0.00
0.733,16.673,0.00
0.750,16.089,0.00
0.767,15.579,0.00
0.783,15.131,0.00
0.800,14.675,0.00
0.817,14.123,0.00
0.833,13.609,0.00
0.850,13.192,0.00
0.867,12.839,0.00
0.883,12.469,0.00
0.900,12.054,0.00
0.917,11.661,0.00
0.933,11.264,0.00
0.950,10.933,0.00
0.967,10.602,0.00
0.983,10.240,0.00
1.000,9.914,0.00
1.017,9.672,0.00
1.033,9.488,0.00
1.050,9.274,0.00
1.067,9.034,0.00
1.083,8.759,0.00
1.100,8.451,0.00
1.117,8.168,0.00
1.133,7.934,0.00
1.150,7.751,0.00
1.167,7.560,0.00
1.183,7.356,0.00
1.200,7.178,0.00
1.217,7.033,0.00
1.233,6.852,0.00
1.250,6.656,0.00
1.267,6.465,0.00
1.283,6.241,0.00
1.300,6.032,0.00
1.317,5.844,0.00
1.333,5.615,0.00
1.350,5.417,0.00
1.367,5.314,0.00
1.383,5.223,0.00
1.400,5.086,0.00
1.417,4.967,0.00
1.433,4.855,0.00
1.450,4.706,0.00
1.467,4.556,0.00
1.483,4.407,0.00
1.500,4.221,0.00
1.517,4.030,0.00
1.533,3.856,0.00
1.550,3.700,0.00
1.567,3.572,0.00
1.583,3.503,0.00
1.600,3.449,0.00
1.617,3.360,0.00
1.633,3.276,0.00
1.650,3.200,0.00
1.667,3.088,0.00
1.683,2.947,0.00
1.700,2.811,0.00
1.717,2.713,0.00
1.733,2.645,0.00
1.750,2.589,0.00
1.767,2.556,0.00
1.783,2.548,0.00
1.800,2.550,0.00
1.817,2.539,0.00
1.833,2.490,0.00
1.850,2.403,0.00
1.867,2.299,0.00
1.883,2.182,0.00
1.900,2.086,0.00
1.917,2.026,0.00
1.933,2.003,0.00
1.950,1.967,0.00
1.967,1.879,0.00
1.983,1.724,0.00
2.000,1.598,0.00
2.017,1.530,0.00
2.033,1.515,0.00
2.050,1.505,0.00
2.067,1.498,0.00
2.083,1.442,0.00
2.100,1.367,0.00
2.117,1.270,0.00
2.133,1.131,0.00
2.150,0.988,0.00
2.167,0.923,0.00
2.183,0.839,0.00
2.200,0.796,0.00
2.217,0.773,0.00
2.233,0.756,0.00
2.250,0.683,0.00
2.267,0.646,0.00
2.283,0.596,0.00
2.300,0.526,0.00
2.317,0.493,0.00
2.333,0.457,0.00
2.350,0.357,0.00
2.367,0.242,0.00
2.383,0.160,0.00
2.400,0.073,0.00
2.417,-0.026,0.00
2.433,-0.106,0.00
2.450,-0.151,0.00
2.467,-0.132,0.00
2.483,-0.132,0.00
2.500,-0.199,0.00
2.517,-0.229,0.00
2.533,-0.272,0.00
2.550,-0.277,0.00
2.567,-0.314,0.00
2.583,-0.434,0.00
2.600,-0.619,0.00
2.617,-0.686,0.00
2.633,-0.669,0.00
2.650,-0.650,0.00
2.667,-0.703,0.00
2.683,-0.722,0.00
2.700,-0.833,0.00
2.717,-0.843,0.00
2.733,-0.838,0.00
2.750,-0.916,0.00
2.767,-1.047,0.00
2.783,-1.108,0.00
2.800,-1.162,0.00
2.817,-1.139,0.00
2.833,-1.146,0.00
2.850,-1.183,0.00
2.867,-1.267,0.00
2.883,-1.302,0.00
2.900,-1.330,0.00
2.917,-1.395,0.00
2.933,-1.473,0.00
2.950,-1.458,0.00
2.967,-1.459,0.00
2.983,-1.451,0.00
3.000,-1.503,0.00
3.017,-1.583,0.00
3.033,-1.696,0.00
3.050,-1.756,0.00
3.067,-1.766,0.00
3.083,-1.809,0.00
3.100,-1.879,0.00
3.117,-1.932,0.00
3.133,-2.016,0.00
3.150,-2.031,0.00
3.167,-2.013,0.00
3.183,-2.000,0.00
3.200,-2.084,0.00
3.217,-2.182,0.00
3.233,-2.285,0.00
3.250,-2.364,0.00
3.267,-2.433,0.00
3.283,-2.475,0.00
3.300,-2.546,0.00
3.317,-2.587,0.00
3.333,-2.653,0.00
3.350,-2.725,0.00
3.367,-2.769,0.00
3.383,-2.783,0.00
3.400,-2.903,0.00
3.417,-3.245,0.00
3.433,-3.761,0.00
3.450,-4.297,0.00
3.467,-4.795,0.00
3.483,-5.220,0.00
3.500,-5.613,0.00
3.517,-6.006,0.00
3.533,-6.333,0.00
3.550,-6.575,0.00
3.567,-6.755,0.00
3.583,-6.925,0.00
3.600,-7.069,0.00
3.617,-7.201,0.00
3.633,-7.344,0.00
3.650,-7.471,0.00
3.667,-7.556,0.00
3.683,-7.622,0.00
3.700,-7.679,0.00
3.717,-7.747,0.00
3.733,-7.771,0.00
3.750,-7.754,0.00
3.767,-7.712,0.00
3.783,-7.681,0.00
3.800,-7.684,0.00
3.817,-7.732,0.00
3.833,-7.806,0.00
3.850,-7.854,0.00
3.867,-7.877,0.00
3.883,-7.883,0.00
3.900,-7.838,0.00
3.917,-7.782,0.00
3.933,-7.748,0.00
3.950,-7.756,0.00
3.967,-7.815,0.00
3.983,-7.890,0.00
4.000,-7.956,0.00
4.017,-7.971,0.00
4.033,-7.929,0.00
4.050,-7.848,0.00
4.067,-7.771,0.00
4.083,-7.759,0.00
4.100,-7.787,0.00
4.117,-7.804,0.00
4.133,-7.807,0.00
4.150,-7.792,0.00
4.167,-7.792,0.00
4.183,-7.801,0.00
4.200,-7.816,0.00
4.217,-7.825,0.00
4.233,-7.894,0.00
4.250,-8.015,0.00
4.267,-8.119,0.00
4.283,-8.124,0.00
4.300,-8.085,0.00
4.317,-8.029,0.00
4.333,-8.020,0.00
4.350,-8.038,0.00
4.367,-8.070,0.00
4.383,-8.049,0.00
4.400,-8.062,0.00
4.417,-8.091,0.00
4.433,-8.111,0.00
4.450,-8.057,0.00
4.467,-8.038,0.00
4.483,-8.043,0.00
4.500,-8.078,0.00
4.517,-8.075,0.00
4.533,-8.020,0.00
4.550,-7.938,0.00
4.567,-7.963,0.00
4.583,-8.044,0.00
4.600,-8.085,0.00
4.617,-8.068,0.00
4.633,-8.022,0.00
4.650,-7.987,0.00
4.667,-7.952,0.00
4.683,-7.888,0.00
4.700,-7.777,0.00
4.717,-7.659,0.00
4.733,-7.608,0.00
4.750,-7.517,0.00
4.767,-7.433,0.00
4.783,-7.358,0.00
4.800,-7.234,0.00
4.817,-7.159,0.00
4.833,-7.057,0.00
4.850,-6.936,0.00
4.867,-6.794,0.00
4.883,-6.587,0.00
4.900,-6.370,0.00
4.917,-6.107,0.00
4.933,-5.866,0.00
4.950,-5.620,0.00
4.967,-5.290,0.00
4.983,-5.014,0.00
5.000,-4.742,0.00
5.017,-4.511,0.00
5.033,-4.307,0.00
5.050,-4.072,0.00
5.067,-3.856,0.00
5.083,-3.653,0.00
5.100,-3.458,0.00
5.117,-3.252,0.00
5.133,-2.973,0.00
5.150,-2.786,0.00
5.167,-2.601,0.00
5.183,-2.495,0.00
5.200,-2.370,0.00
5.217,-2.272,0.00
5.233,-2.161,0.00
5.250,-2.026,0.00
5.267,-1.882,0.00
5.283,-1.752,0.00
5.300,-1.626,0.00
5.317,-1.469,0.00
5.333,-1.302,0.00
5.350,-1.192,0.00
5.367,-1.104,0.00
5.383,-1.088,0.00
5.400,-1.106,0.00
5.417,-1.150,0.00
5.433,-1.189,0.00
5.450,-1.077,0.00
5.467,-1.026,0.00
5.483,-1.107,0.00
5.500,-1.383,0.00
5.517,-1.775,0.00
5.533,-2.201,0.00
5.550,-2.520,0.00
5.567,-2.717,0.00
5.583,-2.822,0.00
5.600,-2.883,0.00
5.617,-2.745,0.00
5.633,-2.663,0.00
5.650,-2.554,0.00
5.667,-2.374,0.00
5.683,-2.184,0.00
5.700,-2.184,0.00
5.717,-2.283,0.00
5.733,-2.444,0.00
5.750,-2.570,0.00
5.767,-2.640,0.00
5.783,-2.595,0.00
5.800,-2.624,0.00
5.817,-2.688,0.00
5.833,-2.721,0.00
5.850,-2.745,0.00
5.867,-2.708,0.00
5.883,-2.585,0.00
5.900,-2.514,0.00
5.917,-2.554,0.00
5.933,-2.691,0.00
5.950,-2.682,0.00
5.967,-2.433,0.00
5.983,-2.123,0.00
6.000,-2.021,0.00
6.017,-2.216,0.00
6.033,-2.553,0.00
6.050,-2.804,0.00
6.067,-2.868,0.00
6.083,-2.848,0.00
6.100,-2.874,0.00
6.117,-2.904,0.00
6.133,-2.905,0.00
6.150,-2.958,0.00
6.167,-3.074,0.00
6.183,-3.245,0.00
6.200,-3.380,0.00
6.217,-3.413,0.00
6.233,-3.397,0.00
6.250,-3.403,0.00
6.267,-3.482,0.00
6.283,-3.522,0.00
6.300,-3.489,0.00
6.317,-3.363,0.00
6.333,-3.185,0.00
6.350,-3.058,0.00
6.367,-2.928,0.00
6.383,-2.817,0.00
6.400,-2.771,0.00
6.417,-2.861,0.00
6.433,-3.103,0.00
6.450,-3.432,0.00
6.467,-3.793,0.00
6.483,-3.995,0.00
6.500,-4.063,0.00
6.517,-4.129,0.00
6.533,-4.238,0.00
6.550,-4.375,0.00
6.567,-4.490,0.00
6.583,-6.849,0.00
6.600,-6.490,0.00
6.617,15.422,0.00
6.633,3.693,0.00
6.650,-45.867,0.00
6.667,6.881,0.00
6.683,236.462,0.00
6.700,845.831,0.00
6.717,1809.942,0.00
6.733,2774.431,0.00
6.750,3374.018,0.00
6.767,3514.024,0.00
6.783,3378.250,0.00
6.800,3189.655,0.00
6.817,3129.329,0.00
6.833,3183.278,0.00
6.850,3161.399,0.00
6.867,3149.273,0.00
6.883,3151.931,0.00
6.900,3154.960,0.00
6.917,3157.482,0.00
6.933,3157.895,0.00
6.950,3157.147,0.00
6.967,3157.000,0.00
6.983,3157.136,0.00
7.000,3157.274,0.00
7.017,3157.134,0.00
7.033,3156.689,0.00
7.050,3157.588,0.00
7.067,3159.594,0.00
7.083,3162.105,0.00
7.100,3163.498,0.00
7.117,3164.981,0.00
7.133,3164.878,0.00
7.150,3164.123,0.00
7.167,3163.892,0.00
7.183,3162.828,0.00
7.200,3161.504,0.00
7.217,3160.850,0.00
7.233,3160.342,0.00
7.250,3159.344,0.00
7.267,3159.190,0.00
7.283,3160.039,0.00
7.300,3159.951,0.00
7.317,3160.481,0.00
7.333,3161.277,0.00
7.350,3160.398,0.00
7.367,3159.417,0.00
7.383,3156.691,0.00
7.400,3152.328,0.00
7.417,3147.326,0.00
7.433,3142.389,0.00
7.450,3137.348,0.00
7.467,3131.985,0.00
7.483,3125.926,0.00
7.500,3119.584,0.00
7.517,3113.278,0.00
7.533,3108.055,0.00
7.550,3100.847,0.00
7.567,3092.631,0.00
7.583,3085.093,0.00
7.600,3078.012,0.00
7.617,3072.680,0.00
7.633,3066.753,0.00
7.650,3059.164,0.00
7.667,3051.988,0.00
7.683,3045.050,0.00
7.700,3039.823,0.00
7.717,3034.802,0.00
7.733,3028.702,0.00
7.750,3022.184,0.00
7.767,3015.898,0.00
7.783,3010.786,0.00
7.800,3005.606,0.00
7.817,2999.733,0.00
7.833,2993.709,0.00
7.850,2986.954,0.00
7.867,2981.360,0.00
7.883,2976.466,0.00
7.900,2970.508,0.00
7.917,2965.293,0.00
7.933,2960.605,0.00
7.950,2956.327,0.00
7.967,2951.028,0.00
7.983,2945.039,0.00
8.000,2938.385,0.00
8.017,2931.736,0.00
8.033,2926.652,0.00
8.050,2922.121,0.00
8.067,2916.644,0.00
8.083,2911.329,0.00
8.100,2906.353,0.00
8.117,2900.483,0.00
8.133,2893.631,0.00
8.150,2887.544,0.00
8.167,2881.630,0.00
8.183,2875.570,0.00
8.200,2870.754,0.00
8.217,2865.661,0.00
8.233,2860.064,0.00
8.250,2854.153,0.00
8.267,2847.616,0.00
8.283,2840.204,0.00
8.300,2833.430,0.00
8.317,2829.169,0.00
8.333,2825.239,0.00
8.350,2820.303,0.00
8.367,2814.619,0.00
8.383,2808.676,0.00
8.400,2803.384,0.00
8.417,2799.009,0.00
8.433,2795.278,0.00
8.450,2792.131,0.00
8.467,2788.511,0.00
8.483,2785.058,0.00
8.500,2781.854,0.00
8.517,2779.413,0.00
8.533,2778.163,0.00
8.550,2778.234,0.00
8.567,2777.927,0.00
8.583,2777.050,0.00
8.600,2776.698,0.00
8.617,2777.100,0.00
8.633,2776.620,0.00
8.650,2774.841,0.00
8.667,2772.616,0.00
8.683,2770.504,0.00
8.700,2768.943,0.00
8.717,2768.686,0.00
8.733,2768.873,0.00
8.750,2768.095,0.00
8.767,2765.823,0.00
8.783,2763.173,0.00
8.800,2760.009,0.00
8.817,2756.026,0.00
8.833,2751.394,0.00
8.850,2746.265,0.00
8.867,2741.327,0.00
8.883,2737.281,0.00
8.900,2733.475,0.00
8.917,2728.668,0.00
8.933,2722.858,0.00
8.950,2718.022,0.00
8.967,2714.464,0.00
8.983,2711.456,0.00
9.000,2707.811,0.00
9.017,2704.235,0.00
9.033,2701.539,0.00
9.050,2698.992,0.00
9.067,2695.567,0.00
9.083,2691.590,0.00
9.100,2687.034,0.00
9.117,2682.261,0.00
9.133,2678.549,0.00
9.150,2676.291,0.00
9.167,2674.110,0.00
9.183,2670.432,0.00
9.200,2670.835,0.00
9.217,2667.251,0.00
9.233,2656.295,0.00
9.250,2652.383,0.00
9.267,2666.956,0.00
9.283,2719.473,0.00
9.300,2808.637,0.00
9.317,2905.592,0.00
9.333,2974.999,0.00
9.350,3002.307,0.00
9.367,3004.371,0.00
9.383,2993.382,0.00
9.400,2985.674,0.00
9.417,2984.664,0.00
9.433,2977.938,0.00
9.450,2970.511,0.00
9.467,2961.935,0.00
9.483,2952.164,0.00
9.500,2941.857,0.00
9.517,2932.526,0.00
9.533,2923.766,0.00
9.550,2916.274,0.00
9.567,2907.022,0.00
9.583,2894.452,0.00
9.600,2882.333,0.00
9.617,2873.436,0.00
9.633,2876.332,0.00
9.650,2891.576,0.00
9.667,2901.711,0.00
9.683,2905.903,0.00
9.700,2888.320,0.00
9.717,2858.425,0.00
9.733,2840.543,0.00
9.750,2852.480,0.00
9.767,2914.257,0.00
9.783,3011.462,0.00
9.800,3117.701,0.00
9.817,3152.470,0.00
9.833,3184.207,0.00
9.850,3242.026,0.00
9.867,3235.256,0.00
9.883,3102.880,0.00
9.900,2726.353,0.00
9.917,2177.418,0.00
9.933,1629.530,0.00
9.950,1201.021,0.00
9.967,890.183,0.00
9.983,612.008,0.00
10.000,397.474,0.00
10.017,234.754,0.00
10.033,134.102,0.00
10.050,98.765,0.00
10.067,50.611,0.00
10.083,15.340,0.00
10.100,-5.223,0.00
10.117,-11.723,0.00
10.133,-11.526,0.00
10.150,-9.487,0.00
10.167,-6.498,0.00
10.183,-2.854,0.00
10.200,-0.969,0.00
10.217,-1.175,0.00
10.233,-2.256,0.00
10.250,-2.830,0.00
10.267,-2.196,0.00
10.283,-1.205,0.00
10.300,-1.777,0.00
10.317,-1.867,0.00
10.333,-1.778,0.00
10.350,-1.427,0.00
10.367,-1.098,0.00
10.383,-0.887,0.00
10.400,-0.641,0.00
10.417,-0.425,0.00
10.433,-0.066,0.00
10.450,0.357,0.00
10.467,0.547,0.00
10.483,0.383,0.00
10.500,-0.099,0.00
10.517,-0.741,0.00
10.533,-1.169,0.00
10.550,-1.316,0.00
10.567,-1.361,0.00
10.583,-1.359,0.00
10.600,-1.403,0.00
10.617,-1.503,0.00
10.633,-1.535,0.00
10.650,-1.473,0.00
10.667,-1.386,0.00
10.683,-1.314,0.00
10.700,-1.262,0.00
10.717,-1.340,0.00
10.733,-1.368,0.00
10.750,-1.222,0.00
10.767,-1.083,0.00
10.783,-0.922,0.00
10.800,-0.779,0.00
10.817,-0.735,0.00
10.833,-0.743,0.00
10.850,-0.718,0.00
10.867,-0.673,0.00
10.883,-0.666,0.00
10.900,-0.629,0.00
10.917,-0.506,0.00
10.933,-0.335,0.00
10.950,-0.194,0.00
10.967,-0.207,0.00
10.983,-0.199,0.00
11.000,-0.152,0.00
11.017,-0.167,0.00
11.033,0.178,0.00
11.050,0.991,0.00
11.067,1.784,0.00
11.083,2.127,0.00
11.100,1.838,0.00
11.117,1.058,0.00
11.133,0.339,0.00
11.150,0.262,0.00
11.167,0.502,0.00
11.183,0.576,0.00
11.200,0.649,0.00
11.217,0.784,0.00
11.233,0.868,0.00
11.250,0.941,0.00
11.267,0.935,0.00
11.283,0.829,0.00
11.300,0.676,0.00
11.317,0.602,0.00
11.333,0.603,0.00
11.350,0.613,0.00
11.367,0.587,0.00
11.383,0.528,0.00
11.400,0.483,0.00
11.417,0.504,0.00
11.433,0.598,0.00
11.450,0.723,0.00
11.467,0.833,0.00
11.483,1.299,0.00
11.500,2.017,0.00
11.517,2.417,0.00
11.533,1.917,0.00
11.550,0.678,0.00
11.567,-0.621,0.00
11.583,-1.378,0.00
11.600,-1.401,0.00
11.617,-1.295,0.00
11.633,-1.355,0.00
11.650,-1.350,0.00
11.667,-1.223,0.00
11.683,-1.025,0.00
11.700,-0.845,0.00
11.717,-0.741,0.00
11.733,-0.646,0.00
11.750,-0.584,0.00
11.767,-0.609,0.00
11.783,-0.657,0.00
11.800,-0.507,0.00
11.817,-0.351,0.00
11.833,-0.281,0.00
11.850,-0.463,0.00
11.867,-0.835,0.00
11.883,-1.196,0.00
11.900,-1.330,0.00
11.917,-1.425,0.00
11.933,-1.427,0.00
11.950,-1.261,0.00
11.967,-1.089,0.00
11.983,-0.984,0.00
12.000,-0.957,0.00
12.017,-0.996,0.00
12.033,-1.107,0.00
12.050,-1.177,0.00
12.067,-1.366,0.00
12.083,-1.416,0.00
12.100,-0.653,0.00
12.117,3.454,0.00
12.133,7.546,0.00
12.150,-2.946,0.00
12.167,9.058,0.00
12.183,182.762,0.00
12.200,591.878,0.00
12.217,1057.818,0.00
12.233,1275.478,0.00
12.250,1086.568,0.00
12.267,623.289,0.00
12.283,186.896,0.00
12.300,-12.347,0.00
12.317,-17.588,0.00
12.333,8.739,0.00
12.350,5.650,1.42
12.367,-0.900,1.44
12.383,-1.753,1.45
12.400,-1.250,1.47
12.417,-0.983,1.49
12.433,-0.821,1.51
12.450,-0.633,1.53
12.467,-0.422,1.55
12.483,-0.217,1.56
12.500,-0.043,1.58
12.517,0.073,1.60
12.533,-0.066,1.62
12.550,-0.319,1.64
12.567,-0.593,1.66
12.583,-0.796,1.68
12.600,-0.872,1.70
12.617,-0.803,1.72
12.633,-0.859,1.74
12.650,-1.052,1.76
12.667,-1.210,1.78
12.683,-1.258,1.80
12.700,-1.232,1.83
12.717,-1.153,1.85
12.733,-1.139,1.87
12.750,-1.110,1.89
12.767,-1.099,1.91
12.783,-1.003,1.93
12.800,-0.956,1.96
12.817,-0.937,1.98
12.833,-0.805,2.00
12.850,-0.608,2.02
12.867,-0.502,2.05
12.883,-0.563,2.07
12.900,-0.722,2.09
12.917,-0.848,2.12
12.933,-0.960,2.14
12.950,-0.913,2.16
12.967,-0.862,2.19
12.983,-0.823,2.21
13.000,-0.790,2.24
13.017,-0.790,2.26
13.033,-0.840,2.29
13.050,-0.845,2.31
13.067,-0.762,2.34
13.083,-0.707,2.36
13.100,-0.672,2.39
13.117,-0.627,2.41
13.133,-0.641,2.44
13.150,-0.617,2.47
13.167,-0.591,2.49
13.183,-0.647,2.52
13.200,-0.689,2.55
13.217,-0.642,2.57
13.233,-0.606,2.60
13.250,-0.643,2.63
13.267,-0.650,2.66
13.283,-0.565,2.68
13.300,-0.406,2.71
13.317,-0.196,2.74
13.333,-0.096,2.77
13.350,-0.208,2.80
13.367,-0.389,2.83
13.383,-0.525,2.86
13.400,-0.600,2.88
13.417,-0.623,2.91
13.433,-0.507,2.94
13.450,-0.219,2.97
13.467,0.102,3.00
13.483,0.312,3.03
13.500,0.318,3.06
13.517,0.177,3.10
13.533,-0.059,3.13
13.550,-0.221,3.16
13.567,-0.200,3.19
13.583,-0.057,3.22
13.600,0.104,3.25
13.617,0.155,3.29
13.633,0.048,3.32
13.650,-0.179,3.35
13.667,-0.322,3.38
13.683,-0.237,3.42
13.700,-0.113,3.45
13.717,0.025,3.48
13.733,0.186,3.52
13.750,0.271,3.55
13.767,0.257,3.59
13.783,0.192,3.62
13.800,0.136,3.65
13.817,0.085,3.69
13.833,0.130,3.72
13.850,0.144,3.76
13.867,0.092,3.80
13.883,0.097,3.83
13.900,0.252,3.87
13.917,0.426,3.90
13.933,0.517,3.94
13.950,0.558,3.98
13.967,0.590,4.01
13.983,0.582,4.05
14.000,0.639,4.09
14.017,0.627,4.13
14.033,0.574,4.16
14.050,0.509,4.20
14.067,0.483,4.24
14.083,0.384,4.28
14.100,0.239,4.32
14.117,0.191,4.36
14.133,0.252,4.40
14.150,0.257,4.44
14.167,0.260,4.48
14.183,0.247,4.52
14.200,0.190,4.56
14.217,0.217,4.60
14.233,0.352,4.64
14.250,0.514,4.68
14.267,0.629,4.72
14.283,0.674,4.76
14.300,0.652,4.81
14.317,0.521,4.85
14.333,0.405,4.89
14.350,0.304,4.93
14.367,0.197,4.98
14.383,0.156,5.02
14.400,0.173,5.06
14.417,0.121,5.11
14.433,0.030,5.15
14.450,-0.136,5.19
14.467,-0.267,5.24
14.483,-0.305,5.28
14.500,-0.316,5.33
14.517,-0.346,5.37
14.533,-0.339,5.42
14.550,-0.239,5.46
14.567,-0.519,5.51
14.583,-0.374,5.56
14.600,0.415,5.60
14.617,1.280,5.65
14.633,1.600,5.70
14.650,1.197,5.74
14.667,0.271,5.79
14.683,-0.556,5.84
14.700,-0.741,5.89
14.717,-0.632,5.94
14.733,-0.843,5.98
14.750,-0.866,6.03
14.767,-0.780,6.08
14.783,-0.762,6.13
14.800,-0.884,6.18
14.817,-0.828,6.23
14.833,-0.711,6.28
14.850,-0.658,6.33
14.867,-0.540,6.38
14.883,-0.581,6.43
14.900,-0.566,6.49
14.917,-0.405,6.54
14.933,-0.121,6.59
14.950,0.192,6.64
14.967,0.520,6.69
14.983,0.768,6.75
15.000,0.943,6.80
15.017,1.085,6.85
15.033,1.349,6.91
15.050,1.417,6.96
15.067,1.441,7.01
15.083,1.477,7.07
15.100,1.437,7.12
15.117,1.383,7.18
15.133,1.259,7.23
15.150,1.023,7.29
15.167,0.896,7.34
15.183,0.884,7.40
15.200,0.939,7.46
15.217,0.906,7.51
15.233,0.798,7.57
15.250,0.711,7.63
15.267,0.775,7.68
15.283,0.938,7.74
15.300,1.115,7.80
15.317,1.232,7.86
15.333,1.395,7.92
15.350,1.700,7.98
15.367,2.125,8.04
15.383,2.389,8.09
15.400,2.168,8.15
15.417,1.579,8.21
15.433,0.989,8.27
15.450,0.604,8.34
15.467,0.521,8.40
15.483,0.744,8.46
15.500,1.173,8.52
15.517,1.775,8.58
15.533,2.666,8.64
15.550,3.814,8.71
15.567,5.062,8.77
15.583,6.080,8.83
15.600,6.540,8.89
15.617,6.332,8.96
15.633,6.015,9.02
15.650,6.411,9.09
15.667,7.735,9.15
15.683,9.455,9.21
15.700,10.799,9.28
15.717,11.599,9.34
15.733,12.601,9.41
15.750,14.524,9.48
15.767,16.959,9.54
15.783,18.414,9.61
15.800,17.911,9.68
15.817,16.041,9.74
15.833,14.408,9.81
15.850,14.161,9.88
15.867,14.967,9.95
15.883,15.420,10.01
15.900,14.537,10.08
15.917,12.715,10.15
15.933,11.199,10.22
15.950,10.856,10.29
15.967,11.589,10.36
15.983,12.850,10.43
16.000,14.519,10.50
16.017,17.436,10.57
16.033,22.275,10.64
16.050,27.914,10.71
16.067,31.843,10.78
16.083,32.439,10.86
16.100,30.624,10.93
16.117,29.253,11.00
16.133,30.985,11.07
16.150,36.417,11.15
16.167,43.805,11.22
16.183,51.649,11.29
16.200,60.627,11.37
16.217,72.913,11.44
16.233,90.584,11.52
16.250,112.659,11.59
16.267,133.238,11.67
16.283,143.039,11.74
16.300,135.407,11.82
16.317,111.823,11.90
16.333,80.979,11.97
16.350,53.147,12.05
16.367,33.979,12.13
16.383,23.194,12.20
16.400,17.926,12.28
16.417,16.038,12.36
16.433,17.040,12.44
16.450,20.642,12.52
16.467,26.277,12.59
16.483,32.966,12.67
16.500,38.992,12.75
16.517,42.561,12.83
16.533,42.459,12.91
16.550,39.379,12.99
16.567,35.001,13.08
16.583,30.927,13.16
16.600,27.751,13.24
16.617,26.219,13.32
16.633,27.140,13.40
16.650,30.848,13.48
16.667,36.457,13.57
16.683,43.124,13.65
16.700,49.873,13.73
16.717,57.173,13.82
16.733,65.772,13.90
16.750,74.238,13.99
16.767,77.977,14.07
16.783,73.416,14.15
16.800,61.712,14.24
16.817,48.486,14.33
16.833,39.291,14.41
16.850,36.266,14.50
16.867,37.283,14.58
16.883,39.557,14.67
16.900,41.794,14.76
16.917,43.369,14.85
16.933,43.734,14.93
16.950,42.554,15.02
16.967,41.033,15.11
16.983,40.356,15.20
17.000,40.917,15.29
17.017,41.694,15.38
17.033,42.260,15.47
17.050,42.783,15.56
17.067,43.504,15.65
17.083,44.596,15.74
17.100,46.026,15.83
17.117,47.625,15.92
17.133,49.234,16.01
17.150,50.752,16.10
17.167,51.889,16.20
17.183,53.110,16.29
17.200,57.144,16.38
17.217,71.083,16.47
17.233,107.243,16.57
17.250,176.950,16.66
17.267,275.950,16.76
17.283,377.238,16.85
17.300,440.923,16.95
17.317,438.404,17.04
17.333,372.953,17.14
17.350,277.144,17.23
17.367,189.034,17.33
17.383,129.591,17.42
17.400,98.099,17.52
17.417,82.878,17.62
17.433,73.688,17.72
17.450,66.932,17.81
17.467,63.261,17.91
17.483,62.509,18.01
17.500,63.509,18.11
17.517,63.902,18.21
17.533,62.835,18.31
17.550,63.070,18.41
17.567,70.074,18.51
17.583,86.522,18.61
17.600,106.669,18.71
17.617,120.621,18.81
17.633,119.809,18.91
17.650,104.364,19.01
17.667,82.945,19.11
17.683,66.051,19.22
17.700,59.596,19.32
17.717,62.782,19.42
17.733,71.781,19.53
17.750,83.144,19.63
17.767,94.948,19.73
17.783,107.416,19.84
17.800,120.001,19.94
17.817,133.596,20.05
17.833,148.036,20.15
17.850,160.979,20.26
17.867,167.022,20.36
17.883,160.328,20.47
17.900,139.957,20.58
17.917,112.503,20.68
17.933,88.045,20.79
17.950,73.350,20.90
17.967,69.796,21.00
17.983,76.416,21.11
18.000,91.806,21.22
18.017,112.686,21.33
18.033,132.883,21.44
18.050,150.714,21.55
18.067,175.532,21.66
18.083,218.975,21.77
18.100,280.426,21.88
18.117,336.421,21.99
18.133,345.897,22.10
18.150,317.477,22.21
18.167,369.425,22.32
18.183,667.952,22.44
18.200,1266.731,22.55
18.217,1983.237,22.66
18.233,2474.655,22.77
18.250,2485.056,22.89
18.267,2064.737,23.00
18.283,1538.426,23.12
18.300,1264.708,23.23
18.317,1406.580,23.34
18.333,1840.184,23.46
18.350,2273.204,23.57
18.367,2467.008,23.69
18.383,2389.456,23.81
18.400,2213.412,23.92
18.417,2152.824,24.04
18.433,2279.855,24.16
18.450,2482.429,24.27
18.467,2597.333,24.39
18.483,2539.897,24.51
18.500,2324.131,24.63
18.517,2011.366,24.75
18.533,1654.803,24.86
18.550,1290.778,24.98
18.567,959.839,25.10
18.583,698.138,25.22
18.600,518.744,25.34
18.617,413.211,25.46
18.633,366.884,25.59
18.650,363.692,25.71
18.667,388.561,25.83
18.683,425.409,25.95
18.700,454.248,26.07
18.717,455.803,26.19
18.733,421.659,26.32
18.750,359.564,26.44
18.767,288.560,26.56
18.783,228.531,26.69
18.800,190.880,26.81
18.817,175.070,26.94
18.833,173.016,27.06
18.850,175.142,27.19
18.867,174.456,27.31
18.883,168.981,27.44
18.900,161.372,27.56
18.917,155.416,27.69
18.933,154.493,27.82
18.950,159.375,27.94
18.967,168.431,28.07
18.983,178.663,28.20
19.000,186.786,28.33
19.017,190.124,28.46
19.033,187.800,28.58
19.050,181.191,28.71
19.067,172.556,28.84
19.083,163.896,28.97
19.100,156.900,29.10
19.117,151.463,29.23
19.133,146.935,29.36
19.150,142.120,29.49
19.167,136.190,29.63
19.183,129.129,29.76
19.200,122.882,29.89
19.217,119.989,30.02
19.233,122.510,30.15
19.250,130.964,30.29
19.267,143.504,30.42
19.283,156.243,30.55
19.300,165.694,30.69
19.317,169.380,30.82
19.333,168.402,30.96
19.350,165.678,31.09
19.367,163.922,31.23
19.383,164.011,31.36
19.400,165.333,31.50
19.417,166.649,31.63
19.433,169.255,31.77
19.450,175.334,31.91
19.467,185.790,32.04
19.483,198.116,32.18
19.500,208.473,32.32
19.517,213.313,32.46
19.533,214.318,32.60
19.550,217.631,32.73
19.567,228.448,32.87
19.583,246.565,33.01
19.600,267.950,33.15
19.617,285.447,33.29
19.633,296.885,33.43
19.650,303.977,33.57
19.667,308.720,33.71
19.683,308.621,33.86
19.700,300.221,34.00
19.717,283.580,34.14
19.733,263.889,34.28
19.750,250.677,34.42
19.767,252.458,34.57
19.783,272.520,34.71
19.800,314.385,34.85
19.817,379.031,35.00
19.833,472.567,35.14
19.850,606.706,35.29
19.867,839.171,35.43
19.883,1261.349,35.58
19.900,1889.462,35.72
19.917,2587.671,35.87
19.933,3162.626,36.01
19.950,3486.963,36.16
19.967,3565.748,36.31
19.983,3494.298,36.45
20.000,3355.240,36.60
20.017,3155.838,36.75
20.033,2885.585,36.90
20.050,2571.168,37.05
20.067,2244.215,37.19
20.083,1916.383,37.34
20.100,1602.128,37.49
20.117,1313.600,37.64
20.133,1059.788,37.79
20.150,845.769,37.94
20.167,671.424,38.09
20.183,533.189,38.24
20.200,426.356,38.39
20.217,346.247,38.55
20.233,286.178,38.70
20.250,241.732,38.85
20.267,209.472,39.00
20.283,186.401,39.15
20.300,169.891,39.31
20.317,158.682,39.46
20.333,152.602,39.61
20.350,151.731,39.77
20.367,154.667,39.92
20.383,169.477,40.08
20.400,221.640,40.23
20.417,345.743,40.39
20.433,571.187,40.54
20.450,908.930,40.70
20.467,1354.955,40.86
20.483,1892.642,41.01
20.500,2487.082,41.17
20.517,3075.509,41.33
20.533,3570.686,41.48
20.550,3897.416,41.64
20.567,4024.547,41.80
20.583,3967.261,41.96
20.600,3763.991,42.12
20.617,3454.725,42.28
20.633,3064.949,42.43
20.650,2608.536,42.59
20.667,2129.026,42.75
20.683,1670.914,42.91
20.700,1239.338,43.07
20.717,898.440,43.24
20.733,843.822,43.40
20.750,1229.034,43.56
20.767,1984.411,43.72
20.783,2843.628,43.88
20.800,3508.148,44.04
20.817,3839.747,44.21
20.833,3927.806,44.37
20.850,3919.384,44.53
20.867,3851.217,44.70
20.883,3703.989,44.86
20.900,3503.691,45.03
20.917,3277.531,45.19
20.933,3035.997,45.35
20.950,2780.184,45.52
20.967,2517.900,45.69
20.983,2251.211,45.85
21.000,1980.740,46.02
21.017,1713.356,46.18
21.033,1458.164,46.35
21.050,1222.279,46.52
21.067,1013.613,46.68
21.083,836.220,46.85
21.100,693.126,47.02
21.117,583.013,47.19
21.133,508.350,47.36
21.150,467.897,47.53
21.167,465.702,47.69
21.183,513.495,47.86
21.200,617.341,48.03
21.217,766.177,48.20
21.233,931.187,48.37
21.250,1077.565,48.54
21.267,1181.044,48.72
21.283,1242.587,48.89
21.300,1277.527,49.06
21.317,1297.667,49.23
21.333,1303.373,49.40
21.350,1288.594,49.57
21.367,1247.100,49.75
21.383,1181.538,49.92
21.400,1104.434,50.09
21.417,1030.094,50.27
21.433,967.828,50.44
21.450,923.871,50.61
21.467,895.180,50.79
21.483,874.429,50.96
21.500,853.968,51.14
21.517,828.556,51.31
21.533,796.087,51.49
21.550,758.213,51.67
21.567,717.750,51.84
21.583,674.819,52.02
21.600,628.712,52.20
21.617,577.827,52.37
21.633,521.895,52.55
21.650,464.732,52.73
21.667,411.463,52.91
21.683,366.496,53.08
21.700,332.489,53.26
21.717,308.679,53.44
21.733,293.123,53.62
21.750,282.496,53.80
21.767,274.879,53.98
21.783,268.169,54.16
21.800,260.703,54.34
21.817,252.503,54.52
21.833,242.979,54.70
21.850,232.306,54.88
21.867,222.504,55.07
21.883,215.801,55.25
21.900,218.680,55.43
21.917,236.881,55.61
21.933,262.034,55.80
21.950,307.902,55.98
21.967,443.330,56.16
21.983,734.681,56.35
22.000,1167.899,56.53
22.017,1636.192,56.71
22.033,2015.809,56.90
22.050,2261.509,57.08
22.067,2444.176,57.27
22.083,2647.644,57.45
22.100,2872.594,57.64
22.117,3049.442,57.82
22.133,3118.357,58.01
22.150,3067.457,58.20
22.167,2928.943,58.38
22.183,2742.633,58.57
22.200,2531.368,58.76
22.217,2304.899,58.95
22.233,2071.406,59.13
22.250,1832.202,59.32
22.267,1595.284,59.51
22.283,1366.271,59.70
22.300,1150.246,59.89
22.317,951.171,60.08
22.333,772.737,60.27
22.350,618.400,60.46
22.367,492.028,60.65
22.383,395.731,60.84
22.400,326.976,61.03
22.417,283.140,61.22
22.433,262.050,61.41
22.450,261.296,61.60
22.467,278.197,61.79
22.483,308.904,61.99
22.500,347.580,62.18
22.517,387.618,62.37
22.533,424.483,62.56
22.550,458.059,62.76
22.567,496.468,62.95
22.583,555.369,63.14
22.600,651.672,63.34
22.617,792.534,63.53
22.633,966.861,63.73
22.650,1146.937,63.92
22.667,1304.154,64.12
22.683,1425.728,64.31
22.700,1521.428,64.51
22.717,1611.847,64.70
22.733,1712.222,64.90
22.750,1815.155,65.10
22.767,1898.343,65.29
22.783,1940.988,65.49
22.800,1933.681,65.69
22.817,1881.729,65.89
22.833,1797.211,66.08
22.850,1692.270,66.28
22.867,1572.683,66.48
22.883,1443.712,66.68
22.900,1314.714,66.88
22.917,1190.742,67.08
22.933,1076.887,67.28
22.950,968.456,67.48
22.967,861.811,67.68
22.983,765.641,67.88
23.000,683.701,68.08
23.017,612.872,68.28
23.033,546.225,68.48
23.050,481.234,68.68
23.067,420.827,68.88
23.083,371.187,69.09
23.100,335.795,69.29
23.117,306.527,69.49
23.133,280.475,69.69
23.150,260.670,69.90
23.167,245.210,70.10
23.183,231.847,70.30
23.200,219.393,70.51
23.217,206.547,70.71
23.233,192.057,70.92
23.250,175.464,71.12
23.267,157.205,71.33
23.283,138.789,71.53
23.300,122.152,71.74
23.317,108.958,71.94
23.333,99.773,72.15
23.350,94.341,72.35
23.367,91.854,72.56
23.383,91.468,72.77
23.400,93.075,72.97
23.417,96.406,73.18
23.433,100.669,73.39
23.450,105.046,73.60
23.467,108.794,73.81
23.483,111.894,74.01
23.500,113.798,74.22
23.517,114.707,74.43
23.533,114.793,74.64
23.550,114.482,74.85
23.567,114.202,75.06
23.583,114.328,75.27
23.600,115.198,75.48
23.617,116.779,75.69
23.633,119.427,75.90
23.650,124.263,76.11
23.667,131.620,76.32
23.683,142.368,76.53
23.700,156.857,76.75
23.717,174.675,76.96
23.733,194.107,77.17
23.750,212.931,77.38
23.767,229.762,77.59
23.783,243.483,77.81
23.800,253.718,78.02
23.817,259.772,78.23
23.833,260.682,78.45
23.850,255.868,78.66
23.867,246.079,78.88
23.883,231.409,79.09
23.900,212.198,79.31
23.917,189.456,79.52
23.933,165.459,79.74
23.950,141.647,79.95
23.967,119.495,80.17
23.983,99.323,80.38
24.000,81.330,80.60
24.017,65.722,80.82
24.033,53.268,81.03
24.050,43.369,81.25
24.067,35.692,81.47
24.083,30.050,81.68
24.100,26.033,81.90
24.117,23.128,82.12
24.133,20.992,82.34
24.150,19.204,82.56
24.167,18.006,82.77
24.183,17.268,82.99
24.200,17.080,83.21
24.217,17.000,83.43
24.233,17.255,83.65
24.250,17.975,83.87
24.267,19.090,84.09
24.283,20.683,84.31
24.300,22.248,84.53
24.317,23.915,84.75
24.333,25.878,84.98
24.350,28.035,85.20
24.367,30.356,85.42
24.383,32.128,85.64
24.400,33.559,85.86
24.417,34.589,86.08
24.433,35.428,86.31
24.450,36.452,86.53
24.467,37.752,86.75
24.483,39.598,86.98
24.500,42.142,87.20
24.517,45.311,87.42
24.533,48.939,87.65
24.550,52.428,87.87
24.567,55.655,88.10
24.583,58.253,88.32
24.600,59.916,88.55
24.617,61.019,88.77
24.633,61.574,89.00
24.650,61.460,89.22
24.667,60.589,89.45
24.683,58.933,89.67
24.700,55.727,89.90
24.717,51.695,90.13
24.733,47.975,90.35
24.750,44.459,90.58
24.767,40.296,90.81
24.783,35.146,91.04
24.800,29.100,91.26
24.817,23.353,91.49
24.833,19.129,91.72
24.850,16.608,91.95
24.867,14.627,92.18
24.883,12.817,92.41
24.900,11.182,92.64
24.917,9.895,92.87
24.933,9.068,93.09
24.950,8.680,93.32
24.967,8.495,93.55
24.983,8.500,93.78
25.000,8.616,94.02
25.017,8.870,94.25
25.033,9.049,94.48
25.050,9.261,94.71
25.067,9.710,94.94
25.083,10.432,95.17
25.100,11.441,95.40
25.117,12.879,95.64
25.133,14.910,95.87
25.150,18.135,96.10
25.167,23.146,96.33
25.183,30.532,96.57
25.200,40.931,96.80
25.217,55.718,97.03
25.233,77.895,97.27
25.250,109.449,97.50
25.267,149.040,97.74
25.283,196.888,97.97
25.300,257.724,98.20
25.317,336.559,98.44
25.333,430.343,98.67
25.350,525.456,98.91
25.367,603.377,99.14
25.383,652.442,99.38
25.400,674.191,99.62
25.417,675.908,99.85
25.433,663.269,100.09
25.450,639.668,100.33
25.467,607.780,100.56
25.483,571.177,100.80
25.500,533.290,101.04
25.517,495.854,101.27
25.533,459.177,101.51
25.550,423.684,101.75
25.567,389.908,101.99
25.583,357.543,102.23
25.600,326.746,102.46
25.617,298.590,102.70
25.633,273.727,102.94
25.650,252.385,103.18
25.667,234.170,103.42
25.683,218.324,103.66
25.700,204.075,103.90
25.717,191.195,104.14
25.733,179.787,104.38
25.750,169.628,104.62
25.767,161.035,104.86
25.783,155.621,105.10
25.800,154.469,105.34
25.817,158.428,105.58
25.833,168.442,105.83
25.850,184.752,106.07
25.867,206.555,106.31
25.883,232.344,106.55
25.900,258.177,106.79
25.917,280.976,107.04
25.933,298.314,107.28
25.950,309.962,107.52
25.967,316.411,107.77
25.983,318.567,108.01
26.000,316.627,108.25
26.017,310.388,108.50
26.033,300.832,108.74
26.050,289.437,108.98
26.067,276.181,109.23
26.083,262.224,109.47
26.100,247.736,109.72
26.117,232.976,109.96
26.133,218.565,110.21
26.150,206.727,110.45
26.167,197.248,110.70
26.183,187.717,110.95
26.200,176.394,111.19
26.217,163.387,111.44
26.233,150.289,111.68
26.250,139.489,111.93
26.267,131.229,112.18
26.283,123.583,112.43
26.300,115.242,112.67
26.317,106.864,112.92
26.333,98.513,113.17
26.350,89.573,113.42
26.367,80.321,113.66
26.383,70.999,113.91
26.400,61.724,114.16
26.417,52.889,114.41
26.433,44.627,114.66
26.450,37.387,114.91
26.467,31.245,115.16
26.483,26.165,115.41
26.500,22.140,115.66
26.517,18.609,115.91
26.533,15.679,116.16
26.550,13.329,116.41
26.567,11.387,116.66
26.583,9.938,116.91
26.600,8.837,117.16
26.617,7.935,117.41
26.633,7.151,117.66
26.650,6.364,117.91
26.667,5.601,118.16
26.683,4.974,118.41
26.700,4.616,118.67
26.717,4.418,118.92
26.733,4.265,119.17
26.750,4.250,119.42
26.767,4.280,119.68
26.783,4.448,119.93
26.800,4.778,120.18
26.817,5.190,120.44
26.833,5.810,120.69
26.850,6.617,120.94
26.867,7.852,121.20
26.883,9.574,121.45
26.900,11.856,121.70
26.917,14.956,121.96
26.933,19.125,122.21
26.950,24.628,122.47
26.967,31.205,122.72
26.983,38.134,122.98
27.000,44.729,123.23
27.017,49.656,123.49
27.033,52.638,123.75
27.050,54.091,124.00
27.067,54.295,124.26
27.083,53.644,124.51
27.100,52.777,124.77
27.117,51.827,125.03
27.133,50.504,125.28
27.150,48.478,125.54
27.167,45.944,125.80
27.183,42.612,126.06
27.200,38.890,126.31
27.217,34.836,126.57
27.233,30.388,126.83
27.250,25.659,127.09
27.267,20.902,127.34
27.283,16.503,127.60
27.300,12.598,127.86
27.317,9.351,128.12
27.333,6.841,128.38
27.350,5.088,128.64
27.367,3.925,128.90
27.383,3.043,129.16
27.400,2.986,129.42
27.417,4.174,129.68
27.433,5.987,129.94
27.450,7.188,130.20
27.467,6.648,130.46
27.483,4.642,130.72
27.500,2.300,130.98
27.517,0.809,131.24
27.533,0.263,131.50
27.550,0.035,131.76
27.567,-0.237,132.02
27.583,-0.469,132.29
27.600,-0.557,132.55
27.617,-0.524,132.81
27.633,-0.555,133.07
27.650,-0.542,133.33
27.667,-0.509,133.60
27.683,-0.607,133.86
27.700,-0.837,134.12
27.717,-1.021,134.39
27.733,-1.057,134.65
27.750,-0.933,134.91
27.767,-0.618,135.18
27.783,-0.243,135.44
27.800,0.012,135.70
27.817,0.206,135.97
27.833,0.518,136.23
27.850,1.120,136.50
27.867,2.115,136.76
27.883,3.521,137.03
27.900,5.109,137.29
27.917,6.584,137.56
27.933,7.905,137.82
27.950,9.013,138.09
27.967,9.886,138.35
27.983,10.622,138.62
28.000,11.032,138.88
28.017,11.261,139.15
28.033,11.712,139.42
28.050,12.290,139.68
28.067,12.559,139.95
28.083,12.116,140.22
28.100,10.888,140.48
28.117,9.123,140.75
28.133,7.324,141.02
28.150,5.836,141.28
28.167,4.499,141.55
28.183,3.367,141.82
28.200,2.514,142.09
28.217,1.737,142.35
28.233,1.116,142.62
28.250,0.702,142.89
28.267,0.485,143.16
28.283,0.442,143.43
28.300,0.265,143.70
28.317,0.023,143.97
28.333,0.027,144.24
28.350,0.144,144.50
28.367,0.255,144.77
28.383,0.154,145.04
28.400,-0.083,145.31
28.417,-0.314,145.58
28.433,-0.066,145.85
28.450,0.558,146.12
28.467,0.977,146.39
28.483,1.031,146.66
28.500,0.714,146.94
28.517,0.099,147.21
28.533,-0.377,147.48
28.550,-0.678,147.75
28.567,-0.887,148.02
28.583,-1.051,148.29
28.600,-0.974,148.56
28.617,-1.000,148.83
28.633,-1.144,149.11
28.650,-1.039,149.38
28.667,-0.714,149.65
28.683,-0.405,149.92
28.700,-0.230,150.20
28.717,-0.390,150.47
28.733,-0.705,150.74
28.750,-0.955,151.01
28.767,-0.934,151.29
28.783,-0.834,151.56
28.800,-0.965,151.83
28.817,-1.021,152.11
28.833,-1.052,152.38
28.850,-0.954,152.66
28.867,-0.858,152.93
28.883,-0.600,153.20
28.900,-0.398,153.48
28.917,-0.402,153.75
28.933,-0.398,154.03
28.950,0.192,154.30
28.967,0.917,154.58
28.983,1.575,154.85
29.000,1.640,155.13
29.017,1.197,155.40
29.033,0.403,155.68
29.050,0.026,155.95
29.067,-0.066,156.23
29.083,-0.228,156.51
29.100,-0.456,156.78
29.117,-0.643,157.06
29.133,-0.863,157.33
29.150,-0.893,157.61
29.167,-0.803,157.89
29.183,-0.623,158.16
29.200,-0.514,158.44
29.217,-0.393,158.72
29.233,-0.440,159.00
29.250,-0.494,159.27
29.267,-0.458,159.55
29.283,-0.285,159.83
29.300,-0.575,160.11
29.317,-0.640,160.38
29.333,0.148,160.66
29.350,1.777,160.94
29.367,3.018,161.22
29.383,3.022,161.50
29.400,1.616,161.77
29.417,-0.097,162.05
29.433,-0.966,162.33
29.450,-0.717,162.61
29.467,-0.487,162.89
29.483,-0.242,163.17
29.500,0.028,163.45
29.517,0.438,163.73
29.533,0.596,164.01
29.550,0.466,164.29
29.567,0.146,164.57
29.583,-0.094,164.85
29.600,-0.089,165.13
29.617,0.021,165.41
29.633,0.064,165.69
29.650,0.036,165.97
29.667,0.098,166.25
29.683,0.305,166.53
29.700,0.498,166.81
29.717,0.659,167.09
29.733,0.750,167.38
29.750,0.831,167.66
29.767,0.995,167.94
29.783,1.199,168.22
29.800,1.367,168.50
29.817,1.397,168.78
29.833,1.322,169.07
29.850,1.235,169.35
29.867,1.282,169.63
29.883,1.465,169.91
29.900,1.507,170.20
29.917,1.321,170.48
29.933,1.110,170.76
29.950,0.967,171.04
29.967,0.921,171.33
29.983,0.838,171.61
30.000,0.503,171.89
30.017,0.123,172.18
30.033,0.202,172.46
30.050,0.631,172.75
30.067,0.840,173.03
30.083,0.566,173.31
30.100,-0.004,173.60
30.117,-0.521,173.88
30.133,-0.626,174.17
30.150,-0.447,174.45
30.167,-0.396,174.74
30.183,-0.412,175.02
30.200,-0.269,175.31
30.217,-0.084,175.59
30.233,-0.023,175.88
30.250,-0.114,176.16
30.267,-0.199,176.45
30.283,-0.128,176.73
30.300,0.065,177.02
30.317,0.157,177.30
30.333,0.083,177.59
30.350,-0.028,177.87
30.367,-0.077,178.16
30.383,0.041,178.45
30.400,0.178,178.73
30.417,0.226,179.02
30.433,0.187,179.31
30.450,0.105,179.59
30.467,0.018,179.88
30.483,-0.051,180.17
30.500,-0.137,180.45
30.517,-0.309,180.74
30.533,-0.409,181.03
30.550,-0.378,181.32
30.567,-0.311,181.60
30.583,-0.346,181.89
30.600,-0.553,182.18
30.617,-0.771,182.47
30.633,-0.827,182.75
30.650,-0.728,183.04
30.667,-0.550,183.33
30.683,-0.345,183.62
30.700,-0.348,183.91
30.717,-0.452,184.20
30.733,-0.419,184.49
30.750,-0.308,184.77
30.767,-0.226,185.06
30.783,-0.111,185.35
30.800,-0.147,185.64
30.817,-0.657,185.93
30.833,-0.168,186.22
30.850,1.734,186.51
30.867,3.619,186.80
30.883,4.302,187.09
30.900,3.267,187.38
30.917,1.276,187.67
30.933,-0.352,187.96
30.950,-0.738,188.25
30.967,-0.394,188.54
30.983,-0.533,188.83
31.000,-0.552,189.12
31.017,-0.522,189.41
31.033,-0.585,189.70
31.050,-0.596,189.99
31.067,-0.643,190.28
31.083,-0.580,190.57
31.100,-0.455,190.86
31.117,-0.413,191.16
31.133,-0.338,191.45
31.150,-0.359,191.74
31.167,-0.233,192.03
31.183,-0.294,192.32
31.200,-0.199,192.61
31.217,0.234,192.91
31.233,0.831,193.20
31.250,1.259,193.49
31.267,1.305,193.78
31.283,0.721,194.07
31.300,-0.033,194.37
31.317,-0.513,194.66
31.333,-0.466,194.95
31.350,-0.406,195.24
31.367,-0.310,195.54
31.383,-0.282,195.83
31.400,-0.237,196.12
31.417,-0.267,196.42
31.433,-0.242,196.71
31.450,-0.254,197.00
31.467,-0.139,197.30
31.483,-0.021,197.59
31.500,0.128,197.88
31.517,0.456,198.18
31.533,0.550,198.47
31.550,0.556,198.77
31.567,0.472,199.06
31.583,0.319,199.35
31.600,0.234,199.65
31.617,0.202,199.94
31.633,0.191,200.24
31.650,0.025,200.53
31.667,-0.067,200.83
31.683,-0.019,201.12
31.700,-0.127,201.42
31.717,-0.156,201.71
31.733,-0.142,202.01
31.750,-0.162,202.30
31.767,-0.136,202.60
31.783,-0.185,202.89
31.800,-0.302,203.19
31.817,-0.465,203.48
31.833,-0.444,203.78
31.850,-0.259,204.07
31.867,-0.183,204.37
31.883,-0.198,204.67
31.900,-0.296,204.96
31.917,-0.409,205.26
31.933,-0.378,205.55
31.950,-0.317,205.85
31.967,-0.346,206.15
31.983,-0.479,206.44
32.000,-0.493,206.74
32.017,-0.437,207.04
32.033,-0.427,207.33
32.050,-0.467,207.63
32.067,-0.546,207.93
32.083,-0.484,208.22
32.100,-0.307,208.52
32.117,-0.100,208.82
32.133,-0.027,209.12
32.150,-0.117,209.41
32.167,-0.242,209.71
32.183,-0.296,210.01
32.200,-0.286,210.31
32.217,-0.321,210.60
32.233,-0.298,210.90
32.250,-0.261,211.20
32.267,-0.247,211.50
32.283,-0.246,211.79
32.300,-0.278,212.09
32.317,-0.397,212.39
32.333,-0.435,212.69
32.350,-0.233,212.99
32.367,0.024,213.29
32.383,0.207,213.59
32.400,0.242,213.88
32.417,0.073,214.18
32.433,-0.136,214.48
32.450,-0.278,214.78
32.467,-0.353,215.08
32.483,-0.396,215.38
32.500,-0.320,215.68
32.517,-0.229,215.98
32.533,-0.278,216.28
32.550,-0.377,216.58
32.567,-0.481,216.88
32.583,-0.473,217.18
32.600,-0.319,217.48
32.617,-0.188,217.78
32.633,-0.203,218.08
32.650,-0.273,218.38
32.667,-0.205,218.68
32.683,-0.079,218.98
32.700,-0.008,219.28
32.717,0.008,219.58
32.733,-0.045,219.88
32.750,-0.043,220.18
32.767,0.045,220.48
32.783,0.076,220.78
32.800,-0.083,221.08
32.817,-0.273,221.38
32.833,-0.310,221.68
32.850,-0.202,221.98
32.867,-0.134,222.28
32.883,-0.145,222.58
32.900,-0.198,222.89
32.917,-0.196,223.19
32.933,-0.141,223.49
32.950,-0.167,223.79
32.967,-0.254,224.09
32.983,-0.257,224.39
33.000,-0.188,224.69
33.017,0.000,225.00
33.033,0.057,225.30
33.050,-0.042,225.60
33.067,-0.133,225.90
33.083,-0.060,226.20
33.100,0.124,226.51
33.117,0.248,226.81
33.133,0.181,227.11
33.150,-0.111,227.41
33.167,-0.304,227.72
33.183,-0.242,228.02
33.200,-0.154,228.32
33.217,-0.178,228.62
33.233,-0.270,228.93
33.250,-0.257,229.23
33.267,-0.146,229.53
33.283,-0.086,229.84
33.300,-0.158,230.14
33.317,-0.354,230.44
33.333,-0.411,230.75
33.350,-0.315,231.05
33.367,-0.153,231.35
33.383,-0.097,231.66
33.400,-0.058,231.96
33.417,0.019,232.26
33.433,0.163,232.57
33.450,0.303,232.87
33.467,0.357,233.17
33.483,0.324,233.48
33.500,0.196,233.78
33.517,0.082,234.09
33.533,0.031,234.39
33.550,-0.070,234.69
33.567,-0.070,235.00
33.583,-0.077,235.30
33.600,-0.086,235.61
33.617,-0.035,235.91
33.633,0.099,236.22
33.650,0.266,236.52
33.667,0.449,236.82
33.683,0.655,237.13
33.700,0.842,237.43
33.717,0.761,237.74
33.733,0.751,238.04
33.750,0.656,238.35
33.767,0.474,238.65
33.783,0.394,238.96
33.800,0.336,239.26
33.817,0.250,239.57
33.833,0.247,239.87
33.850,0.183,240.18
33.867,0.048,240.49
33.883,-0.103,240.79
33.900,-0.035,241.10
33.917,0.045,241.40
33.933,0.119,241.71
33.950,0.031,242.01
33.967,-0.055,242.32
33.983,-0.041,242.63
34.000,0.039,242.93
34.017,0.195,243.24
34.033,0.269,243.54
34.050,0.141,243.85
34.067,-0.092,244.16
34.083,-0.212,244.46
34.100,-0.161,244.77
34.117,-0.082,245.08
34.133,0.040,245.38
34.150,-0.004,245.69
34.167,-0.222,246.00
34.183,-0.194,246.30
34.200,-0.198,246.61
34.217,-0.150,246.92
34.233,-0.048,247.22
34.250,0.048,247.53
34.267,0.010,247.84
34.283,-0.104,248.14
34.300,-0.202,248.45
34.317,-0.261,248.76
34.333,-0.225,249.06
34.350,-0.043,249.37
34.367,-0.050,249.68
34.383,0.014,249.99
34.400,0.119,250.29
34.417,0.285,250.60
34.433,0.435,250.91
34.450,0.465,251.22
34.467,0.379,251.52
34.483,0.253,251.83
34.500,0.130,252.14
34.517,0.067,252.45
34.533,-0.007,252.76
34.550,-0.033,253.06
34.567,-0.062,253.37
34.583,-0.108,253.68
34.600,-0.131,253.99
34.617,-0.033,254.30
34.633,0.190,254.60
34.650,0.376,254.91
34.667,0.318,255.22
34.683,0.081,255.53
34.700,-0.242,255.84
34.717,-0.341,256.15
34.733,-0.110,256.46
34.750,0.257,256.76
34.767,0.517,257.07
34.783,0.552,257.38
34.800,0.381,257.69
34.817,0.122,258.00
34.833,-0.063,258.31
34.850,-0.098,258.62
34.867,-0.125,258.93
34.883,-0.123,259.24
34.900,-0.070,259.54
34.917,-0.029,259.85
34.933,-0.049,260.16
34.950,-0.102,260.47
34.967,-0.138,260.78
34.983,-0.152,261.09
35.000,-0.151,261.40
35.017,-0.156,261.71
35.033,-0.108,262.02
35.050,0.087,262.33
35.067,0.281,262.64
35.083,0.354,262.95
35.100,0.235,263.26
35.117,-0.036,263.57
35.133,-0.230,263.88
35.150,-0.283,264.19
35.167,-0.243,264.50
35.183,-0.274,264.81
35.200,-0.332,265.12
35.217,-0.307,265.43
35.233,-0.268,265.74
35.250,-0.223,266.05
35.267,-0.222,266.36
35.283,-0.224,266.67
35.300,-0.161,266.98
35.317,-0.063,267.29
35.333,-0.009,267.60
35.350,-0.051,267.91
35.367,-0.142,268.22
35.383,-0.170,268.53
35.400,-0.137,268.84
35.417,-0.142,269.15
35.433,-0.224,269.46
35.450,-0.274,269.77
35.467,-0.276,270.09
35.483,-0.249,270.40
35.500,-0.206,270.71
35.517,-0.159,271.02
35.533,-0.212,271.33
35.550,-0.270,271.64
35.567,-0.374,271.95
35.583,-0.161,272.26
35.600,-0.564,272.57
35.617,-0.740,272.88
35.633,0.028,273.20
35.650,1.323,273.51
35.667,2.242,273.82
35.683,2.156,274.13
35.700,1.140,274.44
35.717,-0.115,274.75
35.733,-0.556,275.06
35.750,0.026,275.38
35.767,-0.061,275.69
35.783,-0.198,276.00
35.800,-0.289,276.31
35.817,-0.337,276.62
35.833,-0.300,276.93
35.850,-0.209,277.25
35.867,-0.249,277.56
35.883,-0.416,277.87
35.900,-0.290,278.18
35.917,-0.073,278.49
35.933,0.173,278.81
35.950,0.254,279.12
35.967,0.184,279.43
35.983,0.050,279.74
36.000,-0.063,280.05
36.017,-0.132,280.37
36.033,-0.230,280.68
36.050,-0.222,280.99
36.067,-0.157,281.30
36.083,-0.161,281.62
36.100,-0.140,281.93
36.117,-0.200,282.24
36.133,-0.251,282.55
36.150,-0.173,282.87
36.167,0.172,283.18
36.183,0.507,283.49
36.200,0.771,283.80
36.217,0.896,284.12
36.233,0.674,284.43
36.250,0.343,284.74
36.267,0.191,285.05
36.283,0.120,285.37
36.300,-0.090,285.68
36.317,-0.277,285.99
36.333,-0.255,286.31
36.350,-0.245,286.62
36.367,-0.157,286.93
36.383,-0.075,287.25
36.400,-0.181,287.56
36.417,-0.367,287.87
36.433,-0.367,288.18
36.450,-0.313,288.50
36.467,-0.288,288.81
36.483,-0.196,289.12
36.500,-0.066,289.44
36.517,0.007,289.75
36.533,0.063,290.06
36.550,0.095,290.38
36.567,0.138,290.69
36.583,0.211,291.00
36.600,0.301,291.32
36.617,0.316,291.63
36.633,0.213,291.95
36.650,0.094,292.26
36.667,-0.014,292.57
36.683,-0.053,292.89
36.700,0.044,293.20
36.717,0.116,293.51
36.733,0.201,293.83
36.750,0.238,294.14
36.767,0.186,294.45
36.783,0.160,294.77
36.800,0.078,295.08
36.817,0.072,295.40
36.833,0.102,295.71
36.850,0.091,296.02
36.867,-0.016,296.34
36.883,-0.231,296.65
36.900,-0.266,296.97
36.917,-0.196,297.28
36.933,-0.154,297.59
36.950,-0.113,297.91
36.967,-0.208,298.22
36.983,-0.317,298.54
37.000,-0.301,298.85
37.017,-0.199,299.17
37.033,-0.176,299.48
37.050,-0.223,299.79
37.067,-0.301,300.11
37.083,-0.356,300.42
37.100,-0.359,300.74
37.117,-0.243,301.05
37.133,-0.102,301.37
37.150,-0.022,301.68
37.167,-0.045,302.00
37.183,-0.095,302.31
37.200,-0.146,302.62
37.217,-0.219,302.94
37.233,-0.349,303.25
37.250,-0.446,303.57
37.267,-0.492,303.88
37.283,-0.452,304.20
37.300,-0.349,304.51
37.317,-0.300,304.83
37.333,-0.337,305.14
37.350,-0.401,305.46
37.367,-0.417,305.77
37.383,-0.308,306.09
37.400,-0.149,306.40
37.417,0.025,306.72
37.433,0.140,307.03
37.450,0.069,307.35
37.467,0.731,307.66
37.483,2.848,307.98
37.500,5.295,308.29
37.517,6.396,308.61
37.533,5.398,308.92
37.550,3.005,309.24
37.567,0.770,309.55
37.583,-0.149,309.87
37.600,-0.075,310.18
37.617,-0.157,310.50
37.633,-0.340,310.81
37.650,-0.380,311.13
37.667,-0.367,311.44
37.683,-0.245,311.76
37.700,-0.145,312.07
37.717,-0.094,312.39
37.733,-0.118,312.70
37.750,-0.188,313.02
37.767,-0.228,313.34
37.783,-0.258,313.65
37.800,-0.252,313.97
37.817,-0.245,314.28
37.833,-0.252,314.60
37.850,-0.247,314.91
37.867,-0.326,315.23
37.883,-0.272,315.54
37.900,-0.071,315.86
37.917,0.146,316.18
37.933,0.199,316.49
37.950,-0.035,316.81
37.967,-0.312,317.12
37.983,-0.524,317.44
38.000,-0.498,317.75
38.017,-0.376,318.07
38.033,-0.379,318.38
38.050,-0.391,318.70
38.067,-0.453,319.02
38.083,-0.371,319.33
38.100,-0.144,319.65
38.117,0.009,319.96
38.133,-0.093,320.28
38.150,-0.207,320.60
38.167,-0.025,320.91
38.183,0.284,321.23
38.200,0.479,321.54
38.217,0.411,321.86
38.233,-0.143,322.18
38.250,-0.471,322.49
38.267,-0.087,322.81
38.283,0.598,323.12
38.300,0.873,323.44
38.317,0.719,323.76
38.333,0.202,324.07
38.350,-0.346,324.39
38.367,-0.433,324.70
38.383,-0.159,325.02
38.400,-0.165,325.34
38.417,-0.267,325.65
38.433,-0.364,325.97
38.450,-0.470,326.28
38.467,-0.400,326.60
38.483,-0.182,326.92
38.500,-0.050,327.23
38.517,-0.115,327.55
38.533,-0.205,327.87
38.550,-0.380,328.18
38.567,-0.135,328.50
38.583,-0.950,328.81
38.600,-1.446,329.13
38.617,0.160,329.45
38.633,2.875,329.76
38.650,4.759,330.08
38.667,4.393,330.40
38.683,2.105,330.71
38.700,-0.313,331.03
38.717,-1.122,331.34
38.733,-0.245,331.66
38.750,-0.142,331.98
38.767,-0.232,332.29
38.783,-0.172,332.61
38.800,-0.203,332.93
38.817,-0.133,333.24
38.833,-0.166,333.56
38.850,-0.155,333.88
38.867,-0.154,334.19
38.883,-0.152,334.51
38.900,-0.215,334.83
38.917,-0.222,335.14
38.933,-0.193,335.46
38.950,-0.242,335.78
38.967,-0.190,336.09
38.983,-0.116,336.41
39.000,-0.108,336.73
39.017,-0.162,337.04
39.033,-0.151,337.36
39.050,-0.070,337.67
39.067,-0.010,337.99
39.083,-0.007,338.31
39.100,-0.050,338.62
39.117,-0.101,338.94
39.133,-0.051,339.26
39.150,-0.052,339.57
39.167,-0.148,339.89
39.183,-0.247,340.21
39.200,-0.257,340.52
39.217,-0.275,340.84
39.233,-0.202,341.16
39.250,-0.099,341.48
39.267,0.018,341.79
39.283,0.067,342.11
39.300,-0.006,342.43
39.317,-0.083,342.74
39.333,-0.127,343.06
39.350,-0.063,343.38
39.367,-0.035,343.69
39.383,-0.099,344.01
39.400,-0.085,344.33
39.417,-0.027,344.64
39.433,0.049,344.96
39.450,0.131,345.28
39.467,0.233,345.59
39.483,0.379,345.91
39.500,0.448,346.23
39.517,0.386,346.54
39.533,0.199,346.86
39.550,-0.046,347.18
39.567,-0.195,347.49
39.583,-0.230,347.81
39.600,-0.263,348.13
39.617,-0.273,348.45
39.633,-0.238,348.76
39.650,-0.172,349.08
39.667,-0.081,349.40
39.683,-0.038,349.71
39.700,-0.099,350.03
39.717,-0.231,350.35
39.733,-0.283,350.66
39.750,-0.181,350.98
39.767,-0.028,351.30
39.783,0.025,351.61
39.800,-0.115,351.93
39.817,-0.304,352.25
39.833,-0.363,352.57
39.850,-0.318,352.88
39.867,-0.212,353.20
39.883,-0.128,353.52
39.900,-0.115,353.83
39.917,-0.089,354.15
39.933,-0.046,354.47
39.950,-0.049,354.78
39.967,-0.103,355.10
39.983,-0.159,355.42
40.000,-0.170,355.73
40.017,-0.214,356.05
40.033,-0.204,356.37
40.050,-0.083,356.69
40.067,0.116,357.00
40.083,0.246,357.32
40.100,0.183,357.64
40.117,-0.044,357.95
40.133,-0.242,358.27
40.150,-0.269,358.59
40.167,-0.116,358.90
40.183,-0.110,359.22
40.200,-0.186,359.54
40.217,-0.266,359.86
40.233,-0.263,360.17
40.250,-0.213,360.49
40.267,-0.175,360.81
40.283,-0.165,361.12
40.300,-0.131,361.44
40.317,-0.007,361.76
40.333,0.172,362.07
40.350,0.221,362.39
40.367,0.236,362.71
40.383,0.232,363.03
40.400,0.168,363.34
40.417,0.083,363.66
40.433,0.040,363.98
40.450,-0.030,364.29
40.467,-0.117,364.61
40.483,-0.079,364.93
40.500,0.009,365.25
40.517,0.095,365.56
40.533,0.157,365.88
40.550,0.149,366.20
40.567,0.017,366.51
40.583,-0.065,366.83
40.600,-0.130,367.15
40.617,-0.212,367.46
40.633,-0.266,367.78
40.650,-0.253,368.10
40.667,-0.195,368.41
40.683,-0.218,368.73
40.700,-0.259,369.05
40.717,-0.176,369.37
40.733,-0.097,369.68
40.750,-0.043,370.00
40.767,-0.140,370.32
40.783,-0.254,370.63
40.800,-0.256,370.95
40.817,-0.098,371.27
40.833,-0.041,371.58
40.850,-0.225,371.90
40.867,-0.391,372.22
40.883,-0.423,372.54
40.900,-0.367,372.85
40.917,-0.341,373.17
40.933,-0.324,373.49
40.950,-0.372,373.80
40.967,-0.335,374.12
40.983,-0.128,374.44
41.000,0.162,374.75
41.017,0.579,375.07
41.033,0.885,375.39
41.050,1.004,375.70
41.067,1.036,376.02
41.083,0.833,376.34
41.100,0.631,376.66
41.117,0.512,376.97
41.133,0.501,377.29
41.150,0.408,377.61
41.167,0.341,377.92
41.183,0.273,378.24
41.200,0.016,378.56
41.217,-0.201,378.87
41.233,-0.002,379.19
41.250,0.223,379.51
41.267,0.461,379.82
41.283,0.541,380.14
41.300,0.323,380.46
41.317,-0.036,380.77
41.333,-0.240,381.09
41.350,-0.232,381.41
41.367,-0.175,381.73
41.383,-0.123,382.04
41.400,-0.054,382.36
41.417,-0.099,382.68
