VERSION=1.3
ExportFileName=PM HZ 1_2025-05-14_13-24-16_labchip_PURE_Data_A4
SampleLabel=A4
SampleName=PM HZ 1
SampleComment=
SampleAreaConcRatio=0.011435
SampleLowerMarkerTime=12.23
SampleUpperMarkerTime=-1.00
SamplePeakTimes=12.23,15.88,16.07,16.28,16.48,16.80,17.05,17.28,17.60,17.87,18.20,18.33,18.45,18.68,19.00,19.30,19.62,19.90,20.50,20.70,21.27,22.05,22.73,23.80,24.63,25.35,25.93,27.12,28.05
SamplePeakSizes=1.298,9.993,10.761,11.717,12.645,14.207,15.520,16.810,18.662,20.312,22.491,23.400,24.211,25.883,28.253,30.607,33.204,35.626,41.058,42.958,48.583,56.927,64.725,77.810,88.758,98.645,106.995,124.700,139.322
SamplePeakQuantities=,,,34.7652,14.7016,43.3306,22.7621,145.5630,47.7417,91.1718,732.2505,590.5100,1010.0025,267.2163,171.5069,80.8536,296.6052,2715.3567,2280.9792,3882.4168,2466.3546,3890.1469,3851.6857,635.2085,164.5578,1424.4107,932.7086,100.2504,27.0720
PlateFileName=2025-05-14_13-24-16_labchip_PURE
PlateAssayName=HT Protein Express 200
PlateBarCode=N/A
WellAquisitionTime=5/14/2025 1:56:11 PM 
PlateDataFrequency=60
PlateDataStartTime=11.00
PlateDataEndTime=42.00
PlateConcUnits=ng/ul
PlateSizeUnits=kDa
PlateLadderSizes=1.40,15.90,20.40,28.90,48.40,68.40,119.20
ChipID=H296P-0563N-03
Operator=ACJS
DATA
Time,Value,Size
0.000,39.162,0.00
0.017,39.162,0.00
0.033,39.186,0.00
0.050,39.208,0.00
0.067,39.081,0.00
0.083,38.985,0.00
0.100,38.939,0.00
0.117,38.914,0.00
0.133,38.943,0.00
0.150,39.008,0.00
0.167,39.056,0.00
0.183,39.120,0.00
0.200,39.102,0.00
0.217,38.976,0.00
0.233,38.815,0.00
0.250,38.811,0.00
0.267,38.833,0.00
0.283,38.694,0.00
0.300,38.385,0.00
0.317,37.939,0.00
0.333,37.582,0.00
0.350,37.306,0.00
0.367,37.106,0.00
0.383,36.738,0.00
0.400,36.234,0.00
0.417,35.661,0.00
0.433,35.071,0.00
0.450,34.382,0.00
0.467,33.623,0.00
0.483,32.817,0.00
0.500,31.958,0.00
0.517,31.204,0.00
0.533,30.376,0.00
0.550,29.518,0.00
0.567,28.751,0.00
0.583,28.021,0.00
0.600,27.273,0.00
0.617,26.537,0.00
0.633,25.784,0.00
0.650,25.073,0.00
0.667,24.440,0.00
0.683,23.827,0.00
0.700,23.132,0.00
0.717,22.498,0.00
0.733,22.035,0.00
0.750,21.606,0.00
0.767,21.167,0.00
0.783,20.698,0.00
0.800,20.181,0.00
0.817,19.707,0.00
0.833,19.245,0.00
0.850,18.848,0.00
0.867,18.435,0.00
0.883,18.030,0.00
0.900,17.625,0.00
0.917,17.267,0.00
0.933,16.985,0.00
0.950,16.676,0.00
0.967,16.453,0.00
0.983,16.160,0.00
1.000,15.845,0.00
1.017,15.637,0.00
1.033,15.459,0.00
1.050,15.254,0.00
1.067,14.968,0.00
1.083,14.697,0.00
1.100,14.400,0.00
1.117,14.101,0.00
1.133,13.885,0.00
1.150,13.599,0.00
1.167,13.337,0.00
1.183,13.165,0.00
1.200,13.085,0.00
1.217,12.995,0.00
1.233,12.864,0.00
1.250,12.641,0.00
1.267,12.343,0.00
1.283,12.061,0.00
1.300,11.870,0.00
1.317,11.719,0.00
1.333,11.613,0.00
1.350,11.486,0.00
1.367,11.314,0.00
1.383,11.124,0.00
1.400,10.950,0.00
1.417,10.848,0.00
1.433,10.782,0.00
1.450,10.730,0.00
1.467,10.598,0.00
1.483,10.484,0.00
1.500,10.386,0.00
1.517,10.259,0.00
1.533,10.187,0.00
1.550,10.089,0.00
1.567,9.961,0.00
1.583,9.890,0.00
1.600,9.804,0.00
1.617,9.694,0.00
1.633,9.575,0.00
1.650,9.433,0.00
1.667,9.254,0.00
1.683,9.126,0.00
1.700,9.097,0.00
1.717,9.030,0.00
1.733,8.949,0.00
1.750,8.840,0.00
1.767,8.699,0.00
1.783,8.578,0.00
1.800,8.549,0.00
1.817,8.531,0.00
1.833,8.492,0.00
1.850,8.389,0.00
1.867,8.293,0.00
1.883,8.194,0.00
1.900,8.079,0.00
1.917,7.956,0.00
1.933,7.881,0.00
1.950,7.783,0.00
1.967,7.680,0.00
1.983,7.590,0.00
2.000,7.463,0.00
2.017,7.367,0.00
2.033,7.337,0.00
2.050,7.281,0.00
2.067,7.204,0.00
2.083,7.147,0.00
2.100,7.130,0.00
2.117,7.072,0.00
2.133,7.016,0.00
2.150,6.930,0.00
2.167,6.814,0.00
2.183,6.732,0.00
2.200,6.679,0.00
2.217,6.618,0.00
2.233,6.536,0.00
2.250,6.471,0.00
2.267,6.395,0.00
2.283,6.273,0.00
2.300,6.157,0.00
2.317,6.068,0.00
2.333,6.008,0.00
2.350,5.978,0.00
2.367,5.946,0.00
2.383,5.886,0.00
2.400,5.796,0.00
2.417,5.746,0.00
2.433,5.706,0.00
2.450,5.651,0.00
2.467,5.575,0.00
2.483,5.499,0.00
2.500,5.421,0.00
2.517,5.385,0.00
2.533,5.329,0.00
2.550,5.250,0.00
2.567,5.160,0.00
2.583,5.057,0.00
2.600,4.993,0.00
2.617,4.986,0.00
2.633,4.988,0.00
2.650,4.954,0.00
2.667,4.843,0.00
2.683,4.727,0.00
2.700,4.670,0.00
2.717,4.660,0.00
2.733,4.612,0.00
2.750,4.470,0.00
2.767,4.378,0.00
2.783,4.355,0.00
2.800,4.362,0.00
2.817,4.356,0.00
2.833,4.267,0.00
2.850,4.209,0.00
2.867,4.185,0.00
2.883,4.181,0.00
2.900,4.182,0.00
2.917,4.135,0.00
2.933,4.093,0.00
2.950,4.004,0.00
2.967,3.869,0.00
2.983,3.743,0.00
3.000,3.643,0.00
3.017,3.606,0.00
3.033,3.538,0.00
3.050,3.452,0.00
3.067,3.390,0.00
3.083,3.353,0.00
3.100,3.300,0.00
3.117,3.226,0.00
3.133,3.142,0.00
3.150,3.096,0.00
3.167,3.096,0.00
3.183,3.083,0.00
3.200,3.045,0.00
3.217,2.960,0.00
3.233,2.839,0.00
3.250,2.748,0.00
3.267,2.721,0.00
3.283,2.772,0.00
3.300,2.771,0.00
3.317,2.733,0.00
3.333,2.641,0.00
3.350,2.556,0.00
3.367,2.484,0.00
3.383,2.272,0.00
3.400,1.845,0.00
3.417,1.298,0.00
3.433,0.735,0.00
3.450,0.229,0.00
3.467,-0.229,0.00
3.483,-0.614,0.00
3.500,-0.935,0.00
3.517,-1.160,0.00
3.533,-1.362,0.00
3.550,-1.545,0.00
3.567,-1.695,0.00
3.583,-1.780,0.00
3.600,-1.850,0.00
3.617,-1.915,0.00
3.633,-1.996,0.00
3.650,-2.098,0.00
3.667,-2.176,0.00
3.683,-2.262,0.00
3.700,-2.361,0.00
3.717,-2.421,0.00
3.733,-2.429,0.00
3.750,-2.404,0.00
3.767,-2.386,0.00
3.783,-2.393,0.00
3.800,-2.429,0.00
3.817,-2.499,0.00
3.833,-2.533,0.00
3.850,-2.541,0.00
3.867,-2.569,0.00
3.883,-2.614,0.00
3.900,-2.713,0.00
3.917,-2.823,0.00
3.933,-2.863,0.00
3.950,-2.832,0.00
3.967,-2.750,0.00
3.983,-2.678,0.00
4.000,-2.685,0.00
4.017,-2.776,0.00
4.033,-2.851,0.00
4.050,-2.864,0.00
4.067,-2.838,0.00
4.083,-2.795,0.00
4.100,-2.761,0.00
4.117,-2.795,0.00
4.133,-2.854,0.00
4.150,-2.907,0.00
4.167,-2.975,0.00
4.183,-3.042,0.00
4.200,-3.072,0.00
4.217,-3.079,0.00
4.233,-3.074,0.00
4.250,-3.081,0.00
4.267,-3.093,0.00
4.283,-3.082,0.00
4.300,-3.043,0.00
4.317,-3.020,0.00
4.333,-3.037,0.00
4.350,-3.116,0.00
4.367,-3.189,0.00
4.383,-3.198,0.00
4.400,-3.194,0.00
4.417,-3.183,0.00
4.433,-3.196,0.00
4.450,-3.227,0.00
4.467,-3.253,0.00
4.483,-3.237,0.00
4.500,-3.174,0.00
4.517,-3.121,0.00
4.533,-3.023,0.00
4.550,-2.933,0.00
4.567,-2.923,0.00
4.583,-2.941,0.00
4.600,-2.990,0.00
4.617,-3.006,0.00
4.633,-2.979,0.00
4.650,-2.909,0.00
4.667,-2.899,0.00
4.683,-2.982,0.00
4.700,-3.040,0.00
4.717,-3.064,0.00
4.733,-3.078,0.00
4.750,-3.084,0.00
4.767,-3.075,0.00
4.783,-3.025,0.00
4.800,-2.884,0.00
4.817,-2.660,0.00
4.833,-2.464,0.00
4.850,-2.306,0.00
4.867,-2.124,0.00
4.883,-1.927,0.00
4.900,-1.754,0.00
4.917,-1.566,0.00
4.933,-1.347,0.00
4.950,-1.072,0.00
4.967,-0.732,0.00
4.983,-0.441,0.00
5.000,-0.198,0.00
5.017,0.035,0.00
5.033,0.283,0.00
5.050,0.555,0.00
5.067,0.828,0.00
5.083,1.082,0.00
5.100,1.301,0.00
5.117,1.517,0.00
5.133,1.701,0.00
5.150,1.844,0.00
5.167,2.015,0.00
5.183,2.206,0.00
5.200,2.400,0.00
5.217,2.568,0.00
5.233,2.703,0.00
5.250,2.756,0.00
5.267,2.766,0.00
5.283,2.788,0.00
5.300,2.822,0.00
5.317,2.888,0.00
5.333,2.943,0.00
5.350,2.934,0.00
5.367,2.925,0.00
5.383,2.984,0.00
5.400,3.109,0.00
5.417,3.192,0.00
5.433,3.298,0.00
5.450,3.360,0.00
5.467,3.197,0.00
5.483,2.775,0.00
5.500,2.156,0.00
5.517,1.486,0.00
5.533,0.964,0.00
5.550,0.705,0.00
5.567,0.642,0.00
5.583,0.617,0.00
5.600,0.639,0.00
5.617,0.687,0.00
5.633,0.725,0.00
5.650,0.746,0.00
5.667,0.740,0.00
5.683,0.702,0.00
5.700,0.649,0.00
5.717,0.643,0.00
5.733,0.683,0.00
5.750,0.700,0.00
5.767,0.711,0.00
5.783,0.719,0.00
5.800,0.744,0.00
5.817,0.743,0.00
5.833,0.720,0.00
5.850,0.681,0.00
5.867,0.638,0.00
5.883,0.629,0.00
5.900,0.626,0.00
5.917,0.637,0.00
5.933,0.669,0.00
5.950,0.631,0.00
5.967,0.532,0.00
5.983,0.365,0.00
6.000,0.249,0.00
6.017,0.234,0.00
6.033,0.241,0.00
6.050,0.211,0.00
6.067,0.130,0.00
6.083,0.079,0.00
6.100,0.059,0.00
6.117,0.017,0.00
6.133,-0.041,0.00
6.150,-0.103,0.00
6.167,-0.225,0.00
6.183,-0.292,0.00
6.200,-0.117,0.00
6.217,0.170,0.00
6.233,0.356,0.00
6.250,0.294,0.00
6.267,-0.022,0.00
6.283,-0.420,0.00
6.300,-0.630,0.00
6.317,-0.552,0.00
6.333,-0.505,0.00
6.350,-0.591,0.00
6.367,-0.710,0.00
6.383,-0.879,0.00
6.400,-1.010,0.00
6.417,-1.079,0.00
6.433,-1.118,0.00
6.450,-1.187,0.00
6.467,-1.325,0.00
6.483,-1.472,0.00
6.500,-1.589,0.00
6.517,-1.658,0.00
6.533,-1.689,0.00
6.550,-1.732,0.00
6.567,-1.980,0.00
6.583,-4.853,0.00
6.600,1.799,0.00
6.617,14.409,0.00
6.633,-5.198,0.00
6.650,-34.967,0.00
6.667,51.910,0.00
6.683,332.265,0.00
6.700,898.392,0.00
6.717,1752.613,0.00
6.733,2635.011,0.00
6.750,3248.658,0.00
6.767,3484.712,0.00
6.783,3430.879,0.00
6.800,3267.223,0.00
6.817,3174.635,0.00
6.833,3200.200,0.00
6.850,3217.551,0.00
6.867,3209.664,0.00
6.883,3214.982,0.00
6.900,3215.525,0.00
6.917,3214.517,0.00
6.933,3213.894,0.00
6.950,3214.535,0.00
6.967,3217.249,0.00
6.983,3220.813,0.00
7.000,3222.985,0.00
7.017,3222.884,0.00
7.033,3222.035,0.00
7.050,3221.835,0.00
7.067,3222.840,0.00
7.083,3223.985,0.00
7.100,3223.965,0.00
7.117,3222.495,0.00
7.133,3220.533,0.00
7.150,3218.676,0.00
7.167,3217.335,0.00
7.183,3217.361,0.00
7.200,3218.272,0.00
7.217,3219.178,0.00
7.233,3219.748,0.00
7.250,3220.090,0.00
7.267,3220.362,0.00
7.283,3219.746,0.00
7.300,3218.520,0.00
7.317,3217.147,0.00
7.333,3216.151,0.00
7.350,3215.828,0.00
7.367,3215.193,0.00
7.383,3212.459,0.00
7.400,3207.979,0.00
7.417,3203.462,0.00
7.433,3198.957,0.00
7.450,3193.989,0.00
7.467,3188.258,0.00
7.483,3182.190,0.00
7.500,3175.149,0.00
7.517,3167.780,0.00
7.533,3161.545,0.00
7.550,3154.731,0.00
7.567,3147.536,0.00
7.583,3141.054,0.00
7.600,3134.749,0.00
7.617,3127.912,0.00
7.633,3121.610,0.00
7.650,3115.804,0.00
7.667,3109.959,0.00
7.683,3104.510,0.00
7.700,3098.954,0.00
7.717,3092.128,0.00
7.733,3084.997,0.00
7.750,3079.113,0.00
7.767,3073.217,0.00
7.783,3066.506,0.00
7.800,3060.672,0.00
7.817,3055.216,0.00
7.833,3050.292,0.00
7.850,3045.179,0.00
7.867,3039.762,0.00
7.883,3034.056,0.00
7.900,3027.599,0.00
7.917,3022.191,0.00
7.933,3017.269,0.00
7.950,3011.890,0.00
7.967,3005.992,0.00
7.983,2999.644,0.00
8.000,2992.793,0.00
8.017,2986.260,0.00
8.033,2981.018,0.00
8.050,2975.216,0.00
8.067,2968.230,0.00
8.083,2961.520,0.00
8.100,2955.482,0.00
8.117,2949.306,0.00
8.133,2942.893,0.00
8.150,2936.894,0.00
8.167,2931.140,0.00
8.183,2925.542,0.00
8.200,2919.981,0.00
8.217,2913.508,0.00
8.233,2905.896,0.00
8.250,2898.430,0.00
8.267,2892.269,0.00
8.283,2886.844,0.00
8.300,2881.804,0.00
8.317,2877.016,0.00
8.333,2871.738,0.00
8.350,2865.838,0.00
8.367,2860.724,0.00
8.383,2856.811,0.00
8.400,2852.616,0.00
8.417,2848.336,0.00
8.433,2843.434,0.00
8.450,2839.250,0.00
8.467,2835.987,0.00
8.483,2832.988,0.00
8.500,2830.229,0.00
8.517,2827.632,0.00
8.533,2825.862,0.00
8.550,2824.609,0.00
8.567,2824.448,0.00
8.583,2824.684,0.00
8.600,2824.137,0.00
8.617,2823.051,0.00
8.633,2821.487,0.00
8.650,2820.542,0.00
8.667,2821.096,0.00
8.683,2821.663,0.00
8.700,2820.268,0.00
8.717,2817.452,0.00
8.733,2815.094,0.00
8.750,2812.949,0.00
8.767,2810.173,0.00
8.783,2806.594,0.00
8.800,2803.248,0.00
8.817,2800.496,0.00
8.833,2797.885,0.00
8.850,2794.418,0.00
8.867,2788.528,0.00
8.883,2783.191,0.00
8.900,2779.187,0.00
8.917,2776.103,0.00
8.933,2772.889,0.00
8.950,2768.711,0.00
8.967,2763.737,0.00
8.983,2759.238,0.00
9.000,2755.978,0.00
9.017,2754.422,0.00
9.033,2753.232,0.00
9.050,2751.948,0.00
9.067,2748.857,0.00
9.083,2745.203,0.00
9.100,2742.286,0.00
9.117,2740.131,0.00
9.133,2738.718,0.00
9.150,2737.570,0.00
9.167,2735.165,0.00
9.183,2732.185,0.00
9.200,2734.380,0.00
9.217,2733.025,0.00
9.233,2724.144,0.00
9.250,2721.700,0.00
9.267,2737.552,0.00
9.283,2791.844,0.00
9.300,2883.845,0.00
9.317,2983.086,0.00
9.333,3053.896,0.00
9.350,3080.974,0.00
9.367,3079.089,0.00
9.383,3064.633,0.00
9.400,3053.638,0.00
9.417,3050.443,0.00
9.433,3041.842,0.00
9.450,3030.968,0.00
9.467,3018.790,0.00
9.483,3006.761,0.00
9.500,2996.280,0.00
9.517,2985.425,0.00
9.533,2973.749,0.00
9.550,2963.924,0.00
9.567,2952.916,0.00
9.583,2940.660,0.00
9.600,2929.827,0.00
9.617,2922.322,0.00
9.633,2924.511,0.00
9.650,2940.533,0.00
9.667,2952.092,0.00
9.683,2958.545,0.00
9.700,2948.529,0.00
9.717,2925.062,0.00
9.733,2908.280,0.00
9.750,2916.148,0.00
9.767,2969.530,0.00
9.783,3062.458,0.00
9.800,3171.804,0.00
9.817,3225.660,0.00
9.833,3257.620,0.00
9.850,3307.846,0.00
9.867,3311.900,0.00
9.883,3204.210,0.00
9.900,2884.983,0.00
9.917,2367.565,0.00
9.933,1812.048,0.00
9.950,1358.301,0.00
9.967,1031.003,0.00
9.983,750.039,0.00
10.000,516.431,0.00
10.017,325.295,0.00
10.033,189.742,0.00
10.050,130.768,0.00
10.067,85.554,0.00
10.083,40.329,0.00
10.100,9.326,0.00
10.117,-6.692,0.00
10.133,-10.475,0.00
10.150,-9.053,0.00
10.167,-7.789,0.00
10.183,-6.403,0.00
10.200,-4.520,0.00
10.217,-2.628,0.00
10.233,-1.145,0.00
10.250,-0.435,0.00
10.267,-0.552,0.00
10.283,-1.118,0.00
10.300,-1.499,0.00
10.317,-1.307,0.00
10.333,-1.062,0.00
10.350,-1.006,0.00
10.367,-0.710,0.00
10.383,-0.417,0.00
10.400,-0.185,0.00
10.417,-0.074,0.00
10.433,-0.147,0.00
10.450,0.002,0.00
10.467,0.486,0.00
10.483,0.909,0.00
10.500,0.824,0.00
10.517,0.142,0.00
10.533,-0.691,0.00
10.550,-1.267,0.00
10.567,-1.329,0.00
10.583,-1.210,0.00
10.600,-1.272,0.00
10.617,-1.452,0.00
10.633,-1.429,0.00
10.650,-1.225,0.00
10.667,-0.811,0.00
10.683,-0.446,0.00
10.700,-0.315,0.00
10.717,-0.470,0.00
10.733,-0.704,0.00
10.750,-0.878,0.00
10.767,-0.885,0.00
10.783,-0.820,0.00
10.800,-0.745,0.00
10.817,-0.860,0.00
10.833,-0.881,0.00
10.850,-0.786,0.00
10.867,-0.622,0.00
10.883,-0.514,0.00
10.900,-0.520,0.00
10.917,-0.639,0.00
10.933,-0.709,0.00
10.950,-0.695,0.00
10.967,-0.546,0.00
10.983,-0.425,0.00
11.000,-0.318,0.00
11.017,-0.339,0.00
11.033,-0.364,0.00
11.050,-0.388,0.00
11.067,-0.131,0.00
11.083,0.316,0.00
11.100,0.694,0.00
11.117,0.768,0.00
11.133,0.599,0.00
11.150,0.344,0.00
11.167,0.178,0.00
11.183,0.138,0.00
11.200,0.297,0.00
11.217,0.388,0.00
11.233,0.502,0.00
11.250,0.578,0.00
11.267,0.590,0.00
11.283,0.634,0.00
11.300,0.860,0.00
11.317,1.097,0.00
11.333,1.193,0.00
11.350,1.045,0.00
11.367,0.863,0.00
11.383,0.638,0.00
11.400,0.532,0.00
11.417,0.504,0.00
11.433,0.502,0.00
11.450,0.503,0.00
11.467,0.805,0.00
11.483,1.445,0.00
11.500,2.070,0.00
11.517,1.872,0.00
11.533,0.830,0.00
11.550,-0.453,0.00
11.567,-1.360,0.00
11.583,-1.539,0.00
11.600,-1.233,0.00
11.617,-1.295,0.00
11.633,-1.436,0.00
11.650,-1.357,0.00
11.667,-1.229,0.00
11.683,-1.073,0.00
11.700,-0.944,0.00
11.717,-0.874,0.00
11.733,-0.923,0.00
11.750,-0.941,0.00
11.767,-1.095,0.00
11.783,-1.487,0.00
11.800,-1.662,0.00
11.817,-1.693,0.00
11.833,-1.727,0.00
11.850,-1.575,0.00
11.867,-1.457,0.00
11.883,-1.512,0.00
11.900,-1.538,0.00
11.917,-1.465,0.00
11.933,-1.507,0.00
11.950,-1.511,0.00
11.967,-1.393,0.00
11.983,-1.265,0.00
12.000,-1.274,0.00
12.017,-1.283,0.00
12.033,-1.385,0.00
12.050,-0.563,0.00
12.067,-2.488,0.00
12.083,-2.349,0.00
12.100,1.829,0.00
12.117,10.062,0.00
12.133,9.919,0.00
12.150,-5.567,0.00
12.167,56.642,0.00
12.183,352.434,0.00
12.200,843.555,0.00
12.217,1243.552,0.00
12.233,1273.093,0.00
12.250,911.405,0.00
12.267,402.361,0.00
12.283,52.260,0.00
12.300,-35.264,0.00
12.317,-1.500,0.00
12.333,10.774,0.00
12.350,1.300,1.42
12.367,-2.145,1.44
12.383,-1.912,1.45
12.400,-1.443,1.47
12.417,-1.203,1.49
12.433,-1.131,1.51
12.450,-0.999,1.53
12.467,-0.821,1.55
12.483,-0.602,1.56
12.500,-0.578,1.58
12.517,-0.890,1.60
12.533,-1.290,1.62
12.550,-1.498,1.64
12.567,-1.513,1.66
12.583,-1.419,1.68
12.600,-1.418,1.70
12.617,-1.487,1.72
12.633,-1.517,1.74
12.650,-1.540,1.76
12.667,-1.511,1.78
12.683,-1.477,1.80
12.700,-1.522,1.83
12.717,-1.546,1.85
12.733,-1.517,1.87
12.750,-1.473,1.89
12.767,-1.363,1.91
12.783,-1.348,1.93
12.800,-1.359,1.96
12.817,-1.356,1.98
12.833,-1.316,2.00
12.850,-1.234,2.02
12.867,-1.174,2.05
12.883,-1.017,2.07
12.900,-0.970,2.09
12.917,-0.839,2.12
12.933,-0.449,2.14
12.950,0.097,2.16
12.967,0.422,2.19
12.983,0.568,2.21
13.000,0.533,2.24
13.017,0.500,2.26
13.033,0.851,2.29
13.050,1.440,2.31
13.067,1.632,2.34
13.083,1.356,2.36
13.100,0.827,2.39
13.117,0.520,2.41
13.133,0.246,2.44
13.150,0.128,2.47
13.167,-0.080,2.49
13.183,-0.440,2.52
13.200,-0.617,2.55
13.217,-0.610,2.57
13.233,-0.524,2.60
13.250,-0.479,2.63
13.267,-0.452,2.66
13.283,-0.396,2.68
13.300,-0.281,2.71
13.317,-0.139,2.74
13.333,-0.009,2.77
13.350,0.111,2.80
13.367,0.348,2.83
13.383,0.736,2.86
13.400,1.057,2.88
13.417,1.125,2.91
13.433,0.925,2.94
13.450,0.588,2.97
13.467,0.430,3.00
13.483,0.428,3.03
13.500,0.428,3.06
13.517,0.247,3.10
13.533,0.077,3.13
13.550,-0.105,3.16
13.567,-0.143,3.19
13.583,-0.021,3.22
13.600,0.126,3.25
13.617,0.252,3.29
13.633,0.267,3.32
13.650,0.236,3.35
13.667,0.134,3.38
13.683,0.091,3.42
13.700,0.085,3.45
13.717,0.070,3.48
13.733,0.208,3.52
13.750,0.354,3.55
13.767,0.439,3.59
13.783,0.531,3.62
13.800,0.405,3.65
13.817,0.291,3.69
13.833,0.233,3.72
13.850,0.262,3.76
13.867,0.275,3.80
13.883,0.257,3.83
13.900,0.254,3.87
13.917,0.197,3.90
13.933,0.191,3.94
13.950,0.270,3.98
13.967,0.458,4.01
13.983,0.096,4.05
14.000,0.180,4.09
14.017,0.654,4.13
14.033,1.198,4.16
14.050,1.368,4.20
14.067,1.169,4.24
14.083,0.688,4.28
14.100,0.293,4.32
14.117,0.324,4.36
14.133,0.516,4.40
14.150,0.339,4.44
14.167,0.726,4.48
14.183,1.084,4.52
14.200,1.269,4.56
14.217,1.195,4.60
14.233,0.972,4.64
14.250,0.741,4.68
14.267,0.604,4.72
14.283,0.586,4.76
14.300,0.464,4.81
14.317,0.429,4.85
14.333,0.459,4.89
14.350,0.445,4.93
14.367,0.319,4.98
14.383,0.212,5.02
14.400,0.167,5.06
14.417,0.181,5.11
14.433,0.084,5.15
14.450,-0.058,5.19
14.467,-0.235,5.24
14.483,-0.366,5.28
14.500,-0.472,5.33
14.517,-0.613,5.37
14.533,-0.960,5.42
14.550,-1.471,5.46
14.567,-1.910,5.51
14.583,-2.300,5.56
14.600,-2.703,5.60
14.617,-3.050,5.65
14.633,-3.294,5.70
14.650,-3.417,5.74
14.667,-3.511,5.79
14.683,-3.445,5.84
14.700,-3.201,5.89
14.717,-2.797,5.94
14.733,-2.359,5.98
14.750,-1.918,6.03
14.767,-1.458,6.08
14.783,-0.978,6.13
14.800,-0.228,6.18
14.817,0.932,6.23
14.833,2.124,6.28
14.850,3.117,6.33
14.867,3.594,6.38
14.883,3.485,6.43
14.900,2.972,6.49
14.917,2.491,6.54
14.933,1.917,6.59
14.950,1.184,6.64
14.967,0.487,6.69
14.983,0.032,6.75
15.000,-0.312,6.80
15.017,-0.607,6.85
15.033,-0.925,6.91
15.050,-1.199,6.96
15.067,-1.045,7.01
15.083,-0.584,7.07
15.100,-0.013,7.12
15.117,0.560,7.18
15.133,1.024,7.23
15.150,1.426,7.29
15.167,1.783,7.34
15.183,2.108,7.40
15.200,2.357,7.46
15.217,2.559,7.51
15.233,2.783,7.57
15.250,2.619,7.63
15.267,2.768,7.68
15.283,3.248,7.74
15.300,3.782,7.80
15.317,4.170,7.86
15.333,4.318,7.92
15.350,4.291,7.98
15.367,4.322,8.04
15.383,4.697,8.09
15.400,5.343,8.15
15.417,5.781,8.21
15.433,6.144,8.27
15.450,6.131,8.34
15.467,5.819,8.40
15.483,5.584,8.46
15.500,5.933,8.52
15.517,6.746,8.58
15.533,7.539,8.64
15.550,7.937,8.71
15.567,7.957,8.77
15.583,8.061,8.83
15.600,8.955,8.89
15.617,10.994,8.96
15.633,13.766,9.02
15.650,16.541,9.09
15.667,18.757,9.15
15.683,20.259,9.21
15.700,21.599,9.28
15.717,23.173,9.34
15.733,24.981,9.41
15.750,26.537,9.48
15.767,27.523,9.54
15.783,28.037,9.61
15.800,28.660,9.68
15.817,30.004,9.74
15.833,31.999,9.81
15.850,33.929,9.88
15.867,34.964,9.95
15.883,34.832,10.01
15.900,34.172,10.08
15.917,33.832,10.15
15.933,34.242,10.22
15.950,34.988,10.29
15.967,35.745,10.36
15.983,36.849,10.43
16.000,39.031,10.50
16.017,42.298,10.57
16.033,45.486,10.64
16.050,47.186,10.71
16.067,47.046,10.78
16.083,45.985,10.86
16.100,45.478,10.93
16.117,46.884,11.00
16.133,50.701,11.07
16.150,56.709,11.15
16.167,63.782,11.22
16.183,70.375,11.29
16.200,77.032,11.37
16.217,86.237,11.44
16.233,99.953,11.52
16.250,116.214,11.59
16.267,129.850,11.67
16.283,135.532,11.74
16.300,131.983,11.82
16.317,123.919,11.90
16.333,117.048,11.97
16.350,112.262,12.05
16.367,107.041,12.13
16.383,99.361,12.20
16.400,90.532,12.28
16.417,83.958,12.36
16.433,82.468,12.44
16.450,84.923,12.52
16.467,86.984,12.59
16.483,85.873,12.67
16.500,81.826,12.75
16.517,76.309,12.83
16.533,70.574,12.91
16.550,65.462,12.99
16.567,61.896,13.08
16.583,60.175,13.16
16.600,60.423,13.24
16.617,62.209,13.32
16.633,64.302,13.40
16.650,65.709,13.48
16.667,66.882,13.57
16.683,69.453,13.65
16.700,75.010,13.73
16.717,84.325,13.82
16.733,96.509,13.90
16.750,108.555,13.99
16.767,117.508,14.07
16.783,121.905,14.15
16.800,122.315,14.24
16.817,120.776,14.33
16.833,119.483,14.41
16.850,118.978,14.50
16.867,117.941,14.58
16.883,114.356,14.67
16.900,107.328,14.76
16.917,98.308,14.85
16.933,90.292,14.93
16.950,85.907,15.02
16.967,86.012,15.11
16.983,89.670,15.20
17.000,95.203,15.29
17.017,100.546,15.38
17.033,103.861,15.47
17.050,104.366,15.56
17.067,102.259,15.65
17.083,98.308,15.74
17.100,93.620,15.83
17.117,89.598,15.92
17.133,87.332,16.01
17.150,87.682,16.10
17.167,93.835,16.20
17.183,119.172,16.29
17.200,187.509,16.38
17.217,313.338,16.47
17.233,480.098,16.57
17.250,639.514,16.66
17.267,739.563,16.76
17.283,752.291,16.85
17.300,684.403,16.95
17.317,566.970,17.04
17.333,434.876,17.14
17.350,316.250,17.23
17.367,228.542,17.33
17.383,175.191,17.42
17.400,147.070,17.52
17.417,130.644,17.62
17.433,119.196,17.72
17.450,111.755,17.81
17.467,108.446,17.91
17.483,108.511,18.01
17.500,111.613,18.11
17.517,121.465,18.21
17.533,144.275,18.31
17.550,181.159,18.41
17.567,221.103,18.51
17.583,245.083,18.61
17.600,239.962,18.71
17.617,208.618,18.81
17.633,167.702,18.91
17.650,135.619,19.01
17.667,121.958,19.11
17.683,125.560,19.22
17.700,139.096,19.32
17.717,154.452,19.42
17.733,165.935,19.53
17.750,173.591,19.63
17.767,183.159,19.73
17.783,200.941,19.84
17.800,229.832,19.94
17.817,267.513,20.05
17.833,305.432,20.15
17.850,330.006,20.26
17.867,328.960,20.36
17.883,299.507,20.47
17.900,251.336,20.58
17.917,201.690,20.68
17.933,166.127,20.79
17.950,151.835,20.90
17.967,156.654,21.00
17.983,171.298,21.11
18.000,188.977,21.22
18.017,220.541,21.33
18.033,291.585,21.44
18.050,421.327,21.55
18.067,572.639,21.66
18.083,661.653,21.77
18.100,642.970,21.88
18.117,662.382,21.99
18.133,1069.654,22.10
18.150,2048.937,22.21
18.167,3318.915,22.32
18.183,4288.913,22.44
18.200,4470.821,22.55
18.217,3841.985,22.66
18.233,2863.470,22.77
18.250,2173.408,22.89
18.267,2145.100,23.00
18.283,2678.682,23.12
18.300,3375.896,23.23
18.317,3800.577,23.34
18.333,3749.817,23.46
18.350,3390.766,23.57
18.367,3080.420,23.69
18.383,3049.781,23.81
18.400,3250.351,23.92
18.417,3494.364,24.04
18.433,3630.857,24.16
18.450,3593.464,24.27
18.467,3409.921,24.39
18.483,3148.896,24.51
18.500,2845.076,24.63
18.517,2500.230,24.75
18.533,2127.764,24.86
18.550,1758.970,24.98
18.567,1427.607,25.10
18.583,1161.996,25.22
18.600,981.813,25.34
18.617,893.674,25.46
18.633,883.861,25.59
18.650,922.518,25.71
18.667,965.293,25.83
18.683,966.659,25.95
18.700,906.256,26.07
18.717,793.992,26.19
18.733,658.868,26.32
18.750,532.954,26.44
18.767,440.782,26.56
18.783,388.064,26.69
18.800,365.483,26.81
18.817,358.845,26.94
18.833,354.039,27.06
18.850,345.368,27.19
18.867,334.730,27.31
18.883,326.174,27.44
18.900,323.495,27.56
18.917,328.227,27.69
18.933,339.230,27.82
18.950,353.682,27.94
18.967,367.542,28.07
18.983,376.041,28.20
19.000,376.538,28.33
19.017,369.935,28.46
19.033,359.624,28.58
19.050,348.480,28.71
19.067,337.611,28.84
19.083,326.582,28.97
19.100,314.069,29.10
19.117,299.676,29.23
19.133,284.604,29.36
19.150,270.542,29.49
19.167,259.523,29.63
19.183,254.071,29.76
19.200,255.834,29.89
19.217,265.237,30.02
19.233,280.366,30.15
19.250,297.538,30.29
19.267,311.961,30.42
19.283,319.984,30.55
19.300,320.947,30.69
19.317,317.194,30.82
19.333,313.366,30.96
19.350,313.473,31.09
19.367,318.978,31.23
19.383,328.066,31.36
19.400,337.569,31.50
19.417,347.718,31.63
19.433,361.990,31.77
19.450,382.705,31.91
19.467,406.122,32.04
19.483,424.572,32.18
19.500,435.657,32.32
19.517,445.972,32.46
19.533,466.632,32.60
19.550,500.898,32.73
19.567,539.793,32.87
19.583,568.674,33.01
19.600,579.155,33.15
19.617,573.728,33.29
19.633,560.352,33.43
19.650,543.347,33.57
19.667,524.811,33.71
19.683,510.878,33.86
19.700,514.996,34.00
19.717,547.120,34.14
19.733,616.823,34.28
19.750,724.749,34.42
19.767,891.969,34.57
19.783,1231.734,34.71
19.800,1882.991,34.85
19.817,2824.342,35.00
19.833,3842.449,35.14
19.850,4679.091,35.29
19.867,5186.667,35.43
19.883,5384.393,35.58
19.900,5395.113,35.72
19.917,5300.605,35.87
19.933,5102.520,36.01
19.950,4816.591,36.16
19.967,4492.727,36.31
19.983,4152.857,36.45
20.000,3793.995,36.60
20.017,3417.144,36.75
20.033,3027.408,36.90
20.050,2629.246,37.05
20.067,2232.075,37.19
20.083,1856.189,37.34
20.100,1524.271,37.49
20.117,1250.137,37.64
20.133,1035.728,37.79
20.150,870.172,37.94
20.167,738.557,38.09
20.183,631.505,38.24
20.200,546.656,38.39
20.217,482.308,38.55
20.233,434.237,38.70
20.250,400.066,38.85
20.267,387.577,39.00
20.283,366.821,39.15
20.300,342.247,39.31
20.317,403.701,39.46
20.333,622.482,39.61
20.350,987.493,39.77
20.367,1442.619,39.92
20.383,1955.792,40.08
20.400,2547.907,40.23
20.417,3270.055,40.39
20.433,4101.388,40.54
20.450,4874.888,40.70
20.467,5425.362,40.86
20.483,5699.818,41.01
20.500,5729.320,41.17
20.517,5590.396,41.33
20.533,5379.332,41.48
20.550,5088.815,41.64
20.567,4735.635,41.80
20.583,4447.454,41.96
20.600,4331.732,42.12
20.617,4513.726,42.28
20.633,4959.820,42.43
20.650,5462.670,42.59
20.667,5801.311,42.75
20.683,5897.746,42.91
20.700,5836.100,43.07
20.717,5687.484,43.24
20.733,5532.649,43.40
20.750,5396.880,43.56
20.767,5221.874,43.72
20.783,5036.471,43.88
20.800,4843.123,44.04
20.817,4637.065,44.21
20.833,4417.061,44.37
20.850,4181.132,44.53
20.867,3933.693,44.70
20.883,3677.508,44.86
20.900,3414.328,45.03
20.917,3147.962,45.19
20.933,2878.199,45.35
20.950,2606.965,45.52
20.967,2337.218,45.69
20.983,2074.774,45.85
21.000,1832.374,46.02
21.017,1620.782,46.18
21.033,1453.189,46.35
21.050,1344.441,46.52
21.067,1310.430,46.68
21.083,1357.557,46.85
21.100,1482.761,47.02
21.117,1660.638,47.19
21.133,1854.856,47.36
21.150,2030.001,47.53
21.167,2165.458,47.69
21.183,2256.809,47.86
21.200,2313.066,48.03
21.217,2347.253,48.20
21.233,2368.022,48.37
21.250,2374.296,48.54
21.267,2365.120,48.72
21.283,2334.007,48.89
21.300,2281.416,49.06
21.317,2214.102,49.23
21.333,2141.150,49.40
21.350,2070.170,49.57
21.367,2005.297,49.75
21.383,1944.949,49.92
21.400,1883.375,50.09
21.417,1815.087,50.27
21.433,1737.026,50.44
21.450,1650.584,50.61
21.467,1562.096,50.79
21.483,1477.136,50.96
21.500,1397.213,51.14
21.517,1320.181,51.31
21.533,1243.731,51.49
21.550,1164.209,51.67
21.567,1080.806,51.84
21.583,996.300,52.02
21.600,914.069,52.20
21.617,838.738,52.37
21.633,774.054,52.55
21.650,722.589,52.73
21.667,684.002,52.91
21.683,655.025,53.08
21.700,635.952,53.26
21.717,625.731,53.44
21.733,620.631,53.62
21.750,616.320,53.80
21.767,608.495,53.98
21.783,596.482,54.16
21.800,583.987,54.34
21.817,590.215,54.52
21.833,635.216,54.70
21.850,732.872,54.88
21.867,1014.733,55.07
21.883,1616.907,55.25
21.900,2491.800,55.43
21.917,3381.466,55.61
21.933,3983.533,55.80
21.950,4198.318,55.98
21.967,4198.896,56.16
21.983,4266.561,56.35
22.000,4508.139,56.53
22.017,4784.056,56.71
22.033,4954.642,56.90
22.050,4966.667,57.08
22.067,4858.095,57.27
22.083,4692.031,57.45
22.100,4493.764,57.64
22.117,4267.740,57.82
22.133,4016.311,58.01
22.150,3746.404,58.20
22.167,3464.906,58.38
22.183,3176.084,58.57
22.200,2884.417,58.76
22.217,2589.842,58.95
22.233,2293.224,59.13
22.250,2001.691,59.32
22.267,1724.156,59.51
22.283,1472.115,59.70
22.300,1257.479,59.89
22.317,1089.626,60.08
22.333,971.493,60.27
22.350,901.186,60.46
22.367,875.383,60.65
22.383,883.525,60.84
22.400,910.906,61.03
22.417,947.419,61.22
22.433,986.305,61.41
22.450,1027.699,61.60
22.467,1085.105,61.79
22.483,1181.734,61.99
22.500,1341.049,62.18
22.517,1568.534,62.37
22.533,1842.584,62.56
22.550,2114.007,62.76
22.567,2336.729,62.95
22.583,2498.066,63.14
22.600,2608.841,63.34
22.617,2706.685,63.53
22.633,2819.989,63.73
22.650,2955.484,63.92
22.667,3095.324,64.12
22.683,3209.016,64.31
22.700,3277.513,64.51
22.717,3291.064,64.70
22.733,3258.582,64.90
22.750,3192.568,65.10
22.767,3095.770,65.29
22.783,2978.386,65.49
22.800,2843.463,65.69
22.817,2700.788,65.89
22.833,2555.392,66.08
22.850,2410.879,66.28
22.867,2268.081,66.48
22.883,2125.192,66.68
22.900,1983.693,66.88
22.917,1839.978,67.08
22.933,1692.151,67.28
22.950,1542.889,67.48
22.967,1395.534,67.68
22.983,1255.008,67.88
23.000,1124.215,68.08
23.017,1004.381,68.28
23.033,896.316,68.48
23.050,801.372,68.68
23.067,721.043,68.88
23.083,653.969,69.09
23.100,598.379,69.29
23.117,552.506,69.49
23.133,514.366,69.69
23.150,480.744,69.90
23.167,449.307,70.10
23.183,417.967,70.30
23.200,385.241,70.51
23.217,350.006,70.71
23.233,313.245,70.92
23.250,277.754,71.12
23.267,246.878,71.33
23.283,222.314,71.53
23.300,204.577,71.74
23.317,193.112,71.94
23.333,187.712,72.15
23.350,187.210,72.35
23.367,190.743,72.56
23.383,196.721,72.77
23.400,204.385,72.97
23.417,213.163,73.18
23.433,221.917,73.39
23.450,229.416,73.60
23.467,235.176,73.81
23.483,240.237,74.01
23.500,244.985,74.22
23.517,250.160,74.43
23.533,255.821,74.64
23.550,262.294,74.85
23.567,268.609,75.06
23.583,277.083,75.27
23.600,288.188,75.48
23.617,304.161,75.69
23.633,325.000,75.90
23.650,351.627,76.11
23.667,381.849,76.32
23.683,413.419,76.53
23.700,444.303,76.75
23.717,472.340,76.96
23.733,496.633,77.17
23.750,516.440,77.38
23.767,530.225,77.59
23.783,538.351,77.81
23.800,538.195,78.02
23.817,529.962,78.23
23.833,513.486,78.45
23.850,489.060,78.66
23.867,456.846,78.88
23.883,418.349,79.09
23.900,375.862,79.31
23.917,330.761,79.52
23.933,286.285,79.74
23.950,244.528,79.95
23.967,206.470,80.17
23.983,172.586,80.38
24.000,143.529,80.60
24.017,119.260,80.82
24.033,99.917,81.03
24.050,85.237,81.25
24.067,74.213,81.47
24.083,66.034,81.68
24.100,59.895,81.90
24.117,55.078,82.12
24.133,51.218,82.34
24.150,48.170,82.56
24.167,46.097,82.77
24.183,45.298,82.99
24.200,45.641,83.21
24.217,46.834,83.43
24.233,48.839,83.65
24.250,51.457,83.87
24.267,54.719,84.09
24.283,58.263,84.31
24.300,61.637,84.53
24.317,64.888,84.75
24.333,68.269,84.98
24.350,71.904,85.20
24.367,75.464,85.42
24.383,78.504,85.64
24.400,80.681,85.86
24.417,82.459,86.08
24.433,84.193,86.31
24.450,87.546,86.53
24.467,92.326,86.75
24.483,97.559,86.98
24.500,102.956,87.20
24.517,107.826,87.42
24.533,111.748,87.65
24.550,114.815,87.87
24.567,117.410,88.10
24.583,119.342,88.32
24.600,120.699,88.55
24.617,121.884,88.77
24.633,121.699,89.00
24.650,119.411,89.22
24.667,115.057,89.45
24.683,108.249,89.67
24.700,99.566,89.90
24.717,89.927,90.13
24.733,79.845,90.35
24.750,70.019,90.58
24.767,60.953,90.81
24.783,53.231,91.04
24.800,46.828,91.26
24.817,41.521,91.49
24.833,36.972,91.72
24.850,33.032,91.95
24.867,29.693,92.18
24.883,26.996,92.41
24.900,24.986,92.64
24.917,23.643,92.87
24.933,22.803,93.09
24.950,22.781,93.32
24.967,23.035,93.55
24.983,23.450,93.78
25.000,23.972,94.02
25.017,24.828,94.25
25.033,25.721,94.48
25.050,26.911,94.71
25.067,28.748,94.94
25.083,31.626,95.17
25.100,36.085,95.40
25.117,42.691,95.64
25.133,52.528,95.87
25.150,67.082,96.10
25.167,89.221,96.33
25.183,121.956,96.57
25.200,170.134,96.80
25.217,252.532,97.03
25.233,397.559,97.27
25.250,617.521,97.50
25.267,886.227,97.74
25.283,1145.386,97.97
25.300,1338.652,98.20
25.317,1442.375,98.44
25.333,1473.354,98.67
25.350,1461.176,98.91
25.367,1423.517,99.14
25.383,1369.469,99.38
25.400,1305.751,99.62
25.417,1239.038,99.85
25.433,1173.951,100.09
25.450,1110.879,100.33
25.467,1048.622,100.56
25.483,984.910,100.80
25.500,922.311,101.04
25.517,862.162,101.27
25.533,803.884,101.51
25.550,747.718,101.75
25.567,693.877,101.99
25.583,642.941,102.23
25.600,597.264,102.46
25.617,558.098,102.70
25.633,525.111,102.94
25.650,496.466,103.18
25.667,472.960,103.42
25.683,454.550,103.66
25.700,440.252,103.90
25.717,430.789,104.14
25.733,428.119,104.38
25.750,434.741,104.62
25.767,454.005,104.86
25.783,486.219,105.10
25.800,528.415,105.34
25.817,575.225,105.58
25.833,618.816,105.83
25.850,654.720,106.07
25.867,679.653,106.31
25.883,694.386,106.55
25.900,701.586,106.79
25.917,702.710,107.04
25.933,699.293,107.28
25.950,689.883,107.52
25.967,676.023,107.77
25.983,659.404,108.01
26.000,639.314,108.25
26.017,616.154,108.50
26.033,589.508,108.74
26.050,559.026,108.98
26.067,526.248,109.23
26.083,492.754,109.47
26.100,459.643,109.72
26.117,425.268,109.96
26.133,390.686,110.21
26.150,356.872,110.45
26.167,324.293,110.70
26.183,294.456,110.95
26.200,269.074,111.19
26.217,247.505,111.44
26.233,228.719,111.68
26.250,211.792,111.93
26.267,196.490,112.18
26.283,182.075,112.43
26.300,168.345,112.67
26.317,155.160,112.92
26.333,141.521,113.17
26.350,127.497,113.42
26.367,113.125,113.66
26.383,99.114,113.91
26.400,85.535,114.16
26.417,73.087,114.41
26.433,62.441,114.66
26.450,53.320,114.91
26.467,45.558,115.16
26.483,38.899,115.41
26.500,33.317,115.66
26.517,29.009,115.91
26.533,25.611,116.16
26.550,22.846,116.41
26.567,20.585,116.66
26.583,18.546,116.91
26.600,16.725,117.16
26.617,15.211,117.41
26.633,13.967,117.66
26.650,12.809,117.91
26.667,11.903,118.16
26.683,11.674,118.41
26.700,11.857,118.67
26.717,11.905,118.92
26.733,11.694,119.17
26.750,11.289,119.42
26.767,11.067,119.68
26.783,11.425,119.93
26.800,12.328,120.18
26.817,13.561,120.44
26.833,15.237,120.69
26.850,18.304,120.94
26.867,22.529,121.20
26.883,27.766,121.45
26.900,33.551,121.70
26.917,39.544,121.96
26.933,45.263,122.21
26.950,50.270,122.47
26.967,54.926,122.72
26.983,60.000,122.98
27.000,66.143,123.23
27.017,73.653,123.49
27.033,81.232,123.75
27.050,87.694,124.00
27.067,92.097,124.26
27.083,94.360,124.51
27.100,94.843,124.77
27.117,93.996,125.03
27.133,91.967,125.28
27.150,88.462,125.54
27.167,81.060,125.80
27.183,75.189,126.06
27.200,71.014,126.31
27.217,66.164,126.57
27.233,58.390,126.83
27.250,47.406,127.09
27.267,35.630,127.34
27.283,26.540,127.60
27.300,21.709,127.86
27.317,18.727,128.12
27.333,13.919,128.38
27.350,10.875,128.64
27.367,8.413,128.90
27.383,6.633,129.16
27.400,5.206,129.42
27.417,4.130,129.68
27.433,3.273,129.94
27.450,2.560,130.20
27.467,1.952,130.46
27.483,1.476,130.72
27.500,1.057,130.98
27.517,0.804,131.24
27.533,0.752,131.50
27.550,0.788,131.76
27.567,0.667,132.02
27.583,0.581,132.29
27.600,0.461,132.55
27.617,0.331,132.81
27.633,0.261,133.07
27.650,0.258,133.33
27.667,0.280,133.60
27.683,0.304,133.86
27.700,0.291,134.12
27.717,0.145,134.39
27.733,-0.021,134.65
27.750,-0.088,134.91
27.767,0.026,135.18
27.783,0.289,135.44
27.800,0.769,135.70
27.817,1.519,135.97
27.833,2.753,136.23
27.850,4.594,136.50
27.867,7.262,136.76
27.883,10.530,137.03
27.900,14.221,137.29
27.917,17.913,137.56
27.933,21.497,137.82
27.950,24.718,138.09
27.967,27.264,138.35
27.983,29.019,138.62
28.000,30.004,138.88
28.017,30.412,139.15
28.033,30.411,139.42
28.050,29.982,139.68
28.067,28.978,139.95
28.083,27.172,140.22
28.100,24.729,140.48
28.117,21.682,140.75
28.133,18.441,141.02
28.150,15.236,141.28
28.167,12.244,141.55
28.183,9.649,141.82
28.200,7.474,142.09
28.217,5.771,142.35
28.233,4.486,142.62
28.250,3.578,142.89
28.267,2.878,143.16
28.283,2.225,143.43
28.300,1.838,143.70
28.317,1.550,143.97
28.333,1.281,144.24
28.350,0.987,144.50
28.367,0.773,144.77
28.383,0.642,145.04
28.400,0.568,145.31
28.417,0.525,145.58
28.433,0.400,145.85
28.450,0.157,146.12
28.467,0.007,146.39
28.483,-0.045,146.66
28.500,-0.140,146.94
28.517,-0.302,147.21
28.533,-0.420,147.48
28.550,-0.546,147.75
28.567,-0.642,148.02
28.583,-0.731,148.29
28.600,-0.804,148.56
28.617,-0.849,148.83
28.633,-0.777,149.11
28.650,-0.742,149.38
28.667,-0.892,149.65
28.683,-1.073,149.92
28.700,-1.197,150.20
28.717,-1.198,150.47
28.733,-1.069,150.74
28.750,-1.021,151.01
28.767,-1.134,151.29
28.783,-1.279,151.56
28.800,-1.284,151.83
28.817,-1.257,152.11
28.833,-1.193,152.38
28.850,-1.043,152.66
28.867,-0.893,152.93
28.883,-0.839,153.20
28.900,-0.882,153.48
28.917,-0.939,153.75
28.933,-0.923,154.03
28.950,-0.770,154.30
28.967,-0.616,154.58
28.983,-0.591,154.85
29.000,-0.583,155.13
29.017,-0.539,155.40
29.033,-0.473,155.68
29.050,-0.405,155.95
29.067,-0.300,156.23
29.083,-0.162,156.51
29.100,-0.025,156.78
29.117,0.067,157.06
29.133,0.066,157.33
29.150,-0.016,157.61
29.167,-0.045,157.89
29.183,0.002,158.16
29.200,0.047,158.44
29.217,-0.038,158.72
29.233,-0.209,159.00
29.250,-0.308,159.27
29.267,-0.308,159.55
29.283,-0.207,159.83
29.300,-0.153,160.11
29.317,-0.285,160.38
29.333,-0.482,160.66
29.350,-0.538,160.94
29.367,-0.371,161.22
29.383,-0.201,161.50
29.400,-0.103,161.77
29.417,-0.056,162.05
29.433,-0.064,162.33
29.450,-0.010,162.61
29.467,0.046,162.89
29.483,0.043,163.17
29.500,-0.004,163.45
29.517,-0.003,163.73
29.533,0.121,164.01
29.550,0.202,164.29
29.567,0.200,164.57
29.583,0.215,164.85
29.600,0.251,165.13
29.617,0.379,165.41
29.633,0.600,165.69
29.650,0.838,165.97
29.667,1.040,166.25
29.683,1.158,166.53
29.700,1.192,166.81
29.717,1.234,167.09
29.733,1.407,167.38
29.750,1.707,167.66
29.767,2.023,167.94
29.783,2.254,168.22
29.800,2.313,168.50
29.817,2.242,168.78
29.833,2.103,169.07
29.850,1.914,169.35
29.867,1.911,169.63
29.883,2.161,169.91
29.900,2.370,170.20
29.917,2.372,170.48
29.933,2.218,170.76
29.950,1.932,171.04
29.967,1.573,171.33
29.983,1.266,171.61
30.000,0.962,171.89
30.017,0.629,172.18
30.033,0.437,172.46
30.050,0.362,172.75
30.067,0.278,173.03
30.083,0.192,173.31
30.100,0.094,173.60
30.117,-0.008,173.88
30.133,-0.064,174.17
30.150,-0.054,174.45
30.167,-0.010,174.74
30.183,0.061,175.02
30.200,0.272,175.31
30.217,0.525,175.59
30.233,0.693,175.88
30.250,0.768,176.16
30.267,0.803,176.45
30.283,0.948,176.73
30.300,1.161,177.02
30.317,1.339,177.30
30.333,1.350,177.59
30.350,1.199,177.87
30.367,1.192,178.16
30.383,1.292,178.45
30.400,1.308,178.73
30.417,1.270,179.02
30.433,1.258,179.31
30.450,1.237,179.59
30.467,1.208,179.88
30.483,1.228,180.17
30.500,1.154,180.45
30.517,1.015,180.74
30.533,0.890,181.03
30.550,0.645,181.32
30.567,0.296,181.60
30.583,0.046,181.89
30.600,-0.046,182.18
30.617,-0.008,182.47
30.633,0.060,182.75
30.650,0.064,183.04
30.667,-0.035,183.33
30.683,-0.071,183.62
30.700,-0.012,183.91
30.717,0.044,184.20
30.733,0.064,184.49
30.750,0.040,184.77
30.767,-0.065,185.06
30.783,-0.229,185.35
30.800,-0.388,185.64
30.817,-0.515,185.93
30.833,-0.682,186.22
30.850,-0.767,186.51
30.867,-0.821,186.80
30.883,-0.806,187.09
30.900,-0.716,187.38
30.917,-0.458,187.67
30.933,-0.030,187.96
30.950,0.392,188.25
30.967,0.570,188.54
30.983,0.298,188.83
31.000,-0.191,189.12
31.017,-0.579,189.41
31.033,-0.768,189.70
31.050,-0.759,189.99
31.067,-0.684,190.28
31.083,-0.543,190.57
31.100,-0.422,190.86
31.117,-0.335,191.16
31.133,-0.396,191.45
31.150,-0.424,191.74
31.167,-0.316,192.03
31.183,-0.223,192.32
31.200,-0.246,192.61
31.217,-0.395,192.91
31.233,-0.526,193.20
31.250,-0.521,193.49
31.267,-0.417,193.78
31.283,-0.404,194.07
31.300,-0.535,194.37
31.317,-0.457,194.66
31.333,-0.310,194.95
31.350,-0.249,195.24
31.367,-0.222,195.54
31.383,-0.253,195.83
31.400,-0.296,196.12
31.417,-0.225,196.42
31.433,-0.026,196.71
31.450,0.054,197.00
31.467,0.102,197.30
31.483,0.207,197.59
31.500,0.194,197.88
31.517,0.065,198.18
31.533,0.000,198.47
31.550,-0.013,198.77
31.567,0.050,199.06
31.583,0.092,199.35
31.600,0.048,199.65
31.617,-0.114,199.94
31.633,-0.214,200.24
31.650,-0.277,200.53
31.667,-0.383,200.83
31.683,-0.515,201.12
31.700,-0.624,201.42
31.717,-0.483,201.71
31.733,-0.095,202.01
31.750,0.321,202.30
31.767,0.466,202.60
31.783,0.165,202.89
31.800,-0.281,203.19
31.817,-0.576,203.48
31.833,-0.528,203.78
31.850,-0.284,204.07
31.867,-0.199,204.37
31.883,-0.266,204.67
31.900,-0.476,204.96
31.917,-0.670,205.26
31.933,-0.705,205.55
31.950,-0.655,205.85
31.967,-0.558,206.15
31.983,-0.491,206.44
32.000,-0.472,206.74
32.017,-0.466,207.04
32.033,-0.430,207.33
32.050,-0.340,207.63
32.067,-0.377,207.93
32.083,-0.520,208.22
32.100,-0.649,208.52
32.117,-0.641,208.82
32.133,-0.604,209.12
32.150,-0.562,209.41
32.167,-0.520,209.71
32.183,-0.508,210.01
32.200,-0.469,210.31
32.217,-0.428,210.60
32.233,-0.523,210.90
32.250,-0.335,211.20
32.267,-0.809,211.50
32.283,-0.931,211.79
32.300,-0.184,212.09
32.317,0.965,212.39
32.333,1.637,212.69
32.350,1.382,212.99
32.367,0.398,213.29
32.383,-0.605,213.59
32.400,-0.883,213.88
32.417,-0.377,214.18
32.433,-0.611,214.48
32.450,-0.852,214.78
32.467,-0.847,215.08
32.483,-0.710,215.38
32.500,-0.615,215.68
32.517,-0.493,215.98
32.533,-0.456,216.28
32.550,-0.508,216.58
32.567,-0.666,216.88
32.583,-0.713,217.18
32.600,-0.695,217.48
32.617,-0.603,217.78
32.633,-0.447,218.08
32.650,-0.389,218.38
32.667,-0.425,218.68
32.683,-0.592,218.98
32.700,-0.477,219.28
32.717,-0.006,219.58
32.733,0.611,219.88
32.750,0.990,220.18
32.767,0.876,220.48
32.783,0.403,220.78
32.800,-0.158,221.08
32.817,-0.375,221.38
32.833,-0.321,221.68
32.850,-0.316,221.98
32.867,-0.121,222.28
32.883,-0.002,222.58
32.900,-0.001,222.89
32.917,0.023,223.19
32.933,0.494,223.49
32.950,1.389,223.79
32.967,2.197,224.09
32.983,2.363,224.39
33.000,1.730,224.69
33.017,0.771,225.00
33.033,0.176,225.30
33.050,-0.111,225.60
33.067,-0.214,225.90
33.083,-0.165,226.20
33.100,-0.019,226.51
33.117,0.108,226.81
33.133,0.198,227.11
33.150,0.116,227.41
33.167,-0.070,227.72
33.183,-0.328,228.02
33.200,-0.431,228.32
33.217,-0.415,228.62
33.233,-0.332,228.93
33.250,-0.291,229.23
33.267,-0.260,229.53
33.283,-0.258,229.84
33.300,-0.300,230.14
33.317,-0.288,230.44
33.333,-0.216,230.75
33.350,-0.177,231.05
33.367,-0.180,231.35
33.383,-0.164,231.66
33.400,-0.266,231.96
33.417,-0.443,232.26
33.433,-0.365,232.57
33.450,-0.175,232.87
33.467,-0.113,233.17
33.483,0.005,233.48
33.500,0.211,233.78
33.517,0.439,234.09
33.533,0.573,234.39
33.550,0.682,234.69
33.567,0.567,235.00
33.583,0.322,235.30
33.600,0.108,235.61
33.617,-0.078,235.91
33.633,-0.207,236.22
33.650,-0.187,236.52
33.667,-0.168,236.82
33.683,-0.209,237.13
33.700,-0.363,237.43
33.717,-0.366,237.74
33.733,-0.324,238.04
33.750,-0.248,238.35
33.767,-0.244,238.65
33.783,-0.216,238.96
33.800,-0.274,239.26
33.817,-0.321,239.57
33.833,-0.412,239.87
33.850,-0.528,240.18
33.867,-0.603,240.49
33.883,-0.481,240.79
33.900,-0.321,241.10
33.917,-0.069,241.40
33.933,0.235,241.71
33.950,0.543,242.01
33.967,0.595,242.32
33.983,0.407,242.63
34.000,0.168,242.93
34.017,-0.094,243.24
34.033,-0.122,243.54
34.050,-0.156,243.85
34.067,-0.253,244.16
34.083,-0.348,244.46
34.100,-0.332,244.77
34.117,-0.160,245.08
34.133,-0.056,245.38
34.150,-0.078,245.69
34.167,-0.116,246.00
34.183,-0.235,246.30
34.200,-0.131,246.61
34.217,0.163,246.92
34.233,0.081,247.22
34.250,0.302,247.53
34.267,1.445,247.84
34.283,2.952,248.14
34.300,3.773,248.45
34.317,3.354,248.76
34.333,1.916,249.06
34.350,0.280,249.37
34.367,-0.504,249.68
34.383,-0.349,249.99
34.400,-0.318,250.29
34.417,-0.272,250.60
34.433,-0.330,250.91
34.450,-0.429,251.22
34.467,-0.517,251.52
34.483,-0.541,251.83
34.500,-0.458,252.14
34.517,-0.429,252.45
34.533,-0.454,252.76
34.550,-0.535,253.06
34.567,-0.526,253.37
34.583,-0.418,253.68
34.600,-0.324,253.99
34.617,-0.105,254.30
34.633,0.005,254.60
34.650,-0.042,254.91
34.667,-0.125,255.22
34.683,-0.235,255.53
34.700,-0.313,255.84
34.717,-0.425,256.15
34.733,-0.351,256.46
34.750,-0.226,256.76
34.767,-0.031,257.07
34.783,0.070,257.38
34.800,-0.005,257.69
34.817,-0.058,258.00
34.833,-0.016,258.31
34.850,-0.054,258.62
34.867,-0.042,258.93
34.883,-0.163,259.24
34.900,-0.152,259.54
34.917,0.011,259.85
34.933,0.363,260.16
34.950,0.413,260.47
34.967,0.300,260.78
34.983,0.032,261.09
35.000,-0.216,261.40
35.017,-0.328,261.71
35.033,-0.315,262.02
35.050,-0.437,262.33
35.067,-0.559,262.64
35.083,-0.592,262.95
35.100,-0.546,263.26
35.117,-0.387,263.57
35.133,-0.216,263.88
35.150,-0.205,264.19
35.167,-0.296,264.50
35.183,-0.262,264.81
35.200,-0.283,265.12
35.217,-0.243,265.43
35.233,-0.231,265.74
35.250,-0.232,266.05
35.267,-0.173,266.36
35.283,-0.117,266.67
35.300,-0.279,266.98
35.317,-0.393,267.29
35.333,-0.417,267.60
35.350,-0.258,267.91
35.367,-0.197,268.22
35.383,-0.158,268.53
35.400,-0.260,268.84
35.417,-0.336,269.15
35.433,-0.140,269.46
35.450,0.076,269.77
35.467,0.119,270.09
35.483,0.108,270.40
35.500,-0.010,270.71
35.517,-0.187,271.02
35.533,-0.240,271.33
35.550,-0.155,271.64
35.567,-0.220,271.95
35.583,-0.317,272.26
35.600,-0.357,272.57
35.617,-0.431,272.88
35.633,-0.413,273.20
35.650,-0.291,273.51
35.667,-0.215,273.82
35.683,-0.274,274.13
35.700,-0.269,274.44
35.717,-0.286,274.75
35.733,-0.225,275.06
35.750,-0.088,275.38
35.767,-0.055,275.69
35.783,-0.142,276.00
35.800,-0.204,276.31
35.817,-0.177,276.62
35.833,-0.096,276.93
35.850,-0.053,277.25
35.867,-0.036,277.56
35.883,-0.119,277.87
35.900,-0.148,278.18
35.917,-0.094,278.49
35.933,-0.039,278.81
35.950,0.030,279.12
35.967,0.067,279.43
35.983,-0.016,279.74
36.000,-0.166,280.05
36.017,-0.232,280.37
36.033,-0.159,280.68
36.050,-0.065,280.99
36.067,-0.091,281.30
36.083,-0.152,281.62
36.100,-0.306,281.93
36.117,-0.289,282.24
36.133,-0.249,282.55
36.150,-0.146,282.87
36.167,0.116,283.18
36.183,0.244,283.49
36.200,0.307,283.80
36.217,0.353,284.12
36.233,0.263,284.43
36.250,0.235,284.74
36.267,0.219,285.05
36.283,0.210,285.37
36.300,0.098,285.68
36.317,0.142,285.99
36.333,0.356,286.31
36.350,0.563,286.62
36.367,0.689,286.93
36.383,0.727,287.25
36.400,0.746,287.56
36.417,0.841,287.87
36.433,1.037,288.18
36.450,1.115,288.50
36.467,1.038,288.81
36.483,0.760,289.12
36.500,0.539,289.44
36.517,0.425,289.75
36.533,0.279,290.06
36.550,0.299,290.38
36.567,0.269,290.69
36.583,0.279,291.00
36.600,0.372,291.32
36.617,0.380,291.63
36.633,0.247,291.95
36.650,0.154,292.26
36.667,0.157,292.57
36.683,0.001,292.89
36.700,-0.157,293.20
36.717,0.001,293.51
36.733,0.154,293.83
36.750,0.423,294.14
36.767,0.494,294.45
36.783,0.181,294.77
36.800,-0.216,295.08
36.817,-0.367,295.40
36.833,-0.350,295.71
36.850,-0.251,296.02
36.867,-0.130,296.34
36.883,0.071,296.65
36.900,0.195,296.97
36.917,-0.001,297.28
36.933,-0.126,297.59
36.950,-0.036,297.91
36.967,0.377,298.22
36.983,0.618,298.54
37.000,0.520,298.85
37.017,0.177,299.17
37.033,-0.204,299.48
37.050,-0.236,299.79
37.067,-0.294,300.11
37.083,-0.407,300.42
37.100,-0.278,300.74
37.117,-0.164,301.05
37.133,-0.067,301.37
37.150,-0.106,301.68
37.167,-0.161,302.00
37.183,-0.249,302.31
37.200,-0.275,302.62
37.217,-0.136,302.94
37.233,-0.139,303.25
37.250,0.018,303.57
37.267,0.083,303.88
37.283,0.022,304.20
37.300,-0.020,304.51
37.317,-0.169,304.83
37.333,-0.139,305.14
37.350,-0.075,305.46
37.367,-0.109,305.77
37.383,-0.013,306.09
37.400,0.149,306.40
37.417,0.163,306.72
37.433,-0.055,307.03
37.450,-0.170,307.35
37.467,-0.083,307.66
37.483,-0.078,307.98
37.500,0.025,308.29
37.517,0.041,308.61
37.533,-0.141,308.92
37.550,-0.260,309.24
37.567,-0.195,309.55
37.583,-0.152,309.87
37.600,-0.199,310.18
37.617,-0.249,310.50
37.633,-0.230,310.81
37.650,-0.225,311.13
37.667,-0.181,311.44
37.683,-0.078,311.76
37.700,-0.061,312.07
37.717,-0.091,312.39
37.733,-0.081,312.70
37.750,-0.050,313.02
37.767,-0.065,313.34
37.783,-0.112,313.65
37.800,-0.010,313.97
37.817,0.134,314.28
37.833,0.240,314.60
37.850,0.201,314.91
37.867,0.055,315.23
37.883,-0.086,315.54
37.900,-0.193,315.86
37.917,-0.193,316.18
37.933,-0.148,316.49
37.950,-0.143,316.81
37.967,-0.086,317.12
37.983,-0.064,317.44
38.000,-0.168,317.75
38.017,-0.339,318.07
38.033,-0.229,318.38
38.050,-0.021,318.70
38.067,0.142,319.02
38.083,0.358,319.33
38.100,-0.473,319.65
38.117,-0.433,319.96
38.133,0.678,320.28
38.150,1.907,320.60
38.167,2.212,320.91
38.183,1.471,321.23
38.200,0.208,321.54
38.217,-0.700,321.86
38.233,-0.530,322.18
38.250,0.057,322.49
38.267,-0.307,322.81
38.283,-0.192,323.12
38.300,-0.092,323.44
38.317,0.049,323.76
38.333,0.102,324.07
38.350,0.161,324.39
38.367,0.126,324.70
38.383,0.144,325.02
38.400,0.236,325.34
38.417,0.296,325.65
38.433,0.280,325.97
38.450,0.243,326.28
38.467,0.175,326.60
38.483,0.194,326.92
38.500,0.147,327.23
38.517,0.093,327.55
38.533,0.021,327.87
38.550,-0.063,328.18
38.567,-0.095,328.50
38.583,-0.038,328.81
38.600,0.044,329.13
38.617,0.147,329.45
38.633,0.161,329.76
38.650,0.161,330.08
38.667,0.103,330.40
38.683,0.109,330.71
38.700,0.152,331.03
38.717,0.111,331.34
38.733,0.017,331.66
38.750,-0.155,331.98
38.767,-0.199,332.29
38.783,0.002,332.61
38.800,0.190,332.93
38.817,0.247,333.24
38.833,0.108,333.56
38.850,-0.003,333.88
38.867,-0.086,334.19
38.883,-0.091,334.51
38.900,-0.053,334.83
38.917,-0.107,335.14
38.933,-0.114,335.46
38.950,-0.065,335.78
38.967,-0.079,336.09
38.983,-0.075,336.41
39.000,-0.027,336.73
39.017,0.089,337.04
39.033,0.048,337.36
39.050,-0.074,337.67
39.067,-0.221,337.99
39.083,-0.293,338.31
39.100,-0.314,338.62
39.117,-0.335,338.94
39.133,-0.298,339.26
39.150,-0.235,339.57
39.167,-0.160,339.89
39.183,-0.138,340.21
39.200,-0.160,340.52
39.217,-0.028,340.84
39.233,0.179,341.16
39.250,0.363,341.48
39.267,0.383,341.79
39.283,0.279,342.11
39.300,0.203,342.43
39.317,0.277,342.74
39.333,0.406,343.06
39.350,0.371,343.38
39.367,0.240,343.69
39.383,0.133,344.01
39.400,-0.014,344.33
39.417,-0.100,344.64
39.433,-0.087,344.96
39.450,-0.125,345.28
39.467,-0.216,345.59
39.483,-0.249,345.91
39.500,-0.260,346.23
39.517,-0.240,346.54
39.533,-0.161,346.86
39.550,-0.075,347.18
39.567,-0.119,347.49
39.583,-0.148,347.81
39.600,-0.129,348.13
39.617,-0.073,348.45
39.633,-0.032,348.76
39.650,-0.026,349.08
39.667,-0.040,349.40
39.683,-0.120,349.71
39.700,-0.146,350.03
39.717,-0.141,350.35
39.733,-0.125,350.66
39.750,-0.040,350.98
39.767,0.032,351.30
39.783,0.092,351.61
39.800,0.064,351.93
39.817,0.050,352.25
39.833,0.019,352.57
39.850,-0.057,352.88
39.867,-0.069,353.20
39.883,-0.072,353.52
39.900,-0.084,353.83
39.917,-0.109,354.15
39.933,-0.148,354.47
39.950,-0.179,354.78
39.967,-0.194,355.10
39.983,-0.171,355.42
40.000,-0.219,355.73
40.017,-0.357,356.05
40.033,-0.463,356.37
40.050,-0.476,356.69
40.067,-0.462,357.00
40.083,-0.476,357.32
40.100,-0.388,357.64
40.117,-0.152,357.95
40.133,0.220,358.27
40.150,0.726,358.59
40.167,1.133,358.90
40.183,1.208,359.22
40.200,0.961,359.54
40.217,0.485,359.86
40.233,0.047,360.17
40.250,-0.259,360.49
40.267,-0.354,360.81
40.283,-0.330,361.12
40.300,-0.306,361.44
40.317,-0.201,361.76
40.333,-0.298,362.07
40.350,-0.399,362.39
40.367,0.014,362.71
40.383,0.633,363.03
40.400,1.053,363.34
40.417,0.878,363.66
40.433,0.338,363.98
40.450,-0.190,364.29
40.467,-0.406,364.61
40.483,-0.268,364.93
40.500,-0.236,365.25
40.517,-0.261,365.56
40.533,-0.134,365.88
40.550,-0.105,366.20
40.567,-0.212,366.51
40.583,-0.423,366.83
40.600,-0.510,367.15
40.617,-0.506,367.46
40.633,-0.460,367.78
40.650,-0.422,368.10
40.667,-0.358,368.41
40.683,-0.256,368.73
40.700,-0.234,369.05
40.717,-0.308,369.37
40.733,-0.346,369.68
40.750,-0.362,370.00
40.767,-0.371,370.32
40.783,-0.399,370.63
40.800,-0.434,370.95
40.817,-0.499,371.27
40.833,-0.483,371.58
40.850,-0.360,371.90
40.867,-0.186,372.22
40.883,0.042,372.54
40.900,0.246,372.85
40.917,0.321,373.17
40.933,0.258,373.49
40.950,0.126,373.80
40.967,0.113,374.12
40.983,0.198,374.44
41.000,0.396,374.75
41.017,0.672,375.07
41.033,0.861,375.39
41.050,0.928,375.70
41.067,0.953,376.02
41.083,0.971,376.34
41.100,0.960,376.66
41.117,0.948,376.97
41.133,0.862,377.29
41.150,0.648,377.61
41.167,0.452,377.92
41.183,0.323,378.24
41.200,0.163,378.56
41.217,0.047,378.87
41.233,0.007,379.19
41.250,-0.047,379.51
41.267,-0.085,379.82
41.283,-0.107,380.14
41.300,-0.141,380.46
41.317,-0.100,380.77
41.333,-0.090,381.09
41.350,-0.200,381.41
41.367,-0.314,381.73
41.383,-0.314,382.04
41.400,-0.216,382.36
41.417,-0.087,382.68
41.433,0.019,382.99
41.450,0.002,383.31
41.467,-0.080,383.63
41.483,-0.115,383.94
41.500,-0.171,384.26
41.517,-0.248,384.58
41.533,-0.256,384.89
41.550,-0.190,385.21
41.567,-0.114,385.53
41.583,-0.113,385.84
41.600,-0.179,386.16
41.617,-0.285,386.48
