VERSION=1.3
ExportFileName=PM JS 16_2025-05-14_13-24-16_labchip_PURE_Data_E5
SampleLabel=E5
SampleName=PM JS 16
SampleComment=
SampleAreaConcRatio=0.014977
SampleLowerMarkerTime=12.18
SampleUpperMarkerTime=-1.00
SamplePeakTimes=12.18,15.63,16.28,16.77,17.32,17.65,17.90,18.20,18.32,18.45,18.57,18.78,18.92,19.08,19.38,19.77,20.10,20.70,21.05,21.47,22.33,22.92,23.28,23.92,25.55,26.12
SamplePeakSizes=1.384,9.140,11.808,14.082,16.981,18.903,20.426,22.348,23.124,24.029,24.837,26.380,27.356,28.605,30.933,34.056,36.908,42.354,45.714,49.889,59.162,65.839,70.209,78.060,99.979,108.104
SamplePeakQuantities=,,2.3024,2.0880,14.0090,3.0818,7.9113,13.4738,83.3030,98.8390,106.6289,23.8848,6.4409,18.7550,11.6161,45.8642,300.1245,314.4621,611.0756,182.7420,298.5630,205.5265,25.9968,52.0991,94.9919,63.0426
PlateFileName=2025-05-14_13-24-16_labchip_PURE
PlateAssayName=HT Protein Express 200
PlateBarCode=N/A
WellAquisitionTime=5/14/2025 2:05:13 PM 
PlateDataFrequency=60
PlateDataStartTime=11.00
PlateDataEndTime=42.00
PlateConcUnits=ng/ul
PlateSizeUnits=kDa
PlateLadderSizes=1.40,15.90,20.40,28.90,48.40,68.40,119.20
ChipID=H296P-0563N-03
Operator=ACJS
DATA
Time,Value,Size
0.000,27.282,0.00
0.017,27.230,0.00
0.033,27.229,0.00
0.050,27.207,0.00
0.067,27.160,0.00
0.083,27.096,0.00
0.100,27.022,0.00
0.117,27.069,0.00
0.133,27.280,0.00
0.150,27.486,0.00
0.167,27.617,0.00
0.183,27.810,0.00
0.200,28.131,0.00
0.217,28.428,0.00
0.233,28.495,0.00
0.250,28.173,0.00
0.267,27.427,0.00
0.283,26.560,0.00
0.300,25.862,0.00
0.317,25.266,0.00
0.333,24.667,0.00
0.350,24.030,0.00
0.367,23.355,0.00
0.383,22.610,0.00
0.400,21.762,0.00
0.417,20.838,0.00
0.433,19.877,0.00
0.450,18.972,0.00
0.467,18.148,0.00
0.483,17.331,0.00
0.500,16.446,0.00
0.517,15.505,0.00
0.533,14.567,0.00
0.550,13.637,0.00
0.567,12.750,0.00
0.583,11.957,0.00
0.600,11.249,0.00
0.617,10.613,0.00
0.633,9.986,0.00
0.650,9.361,0.00
0.667,8.756,0.00
0.683,8.168,0.00
0.700,7.626,0.00
0.717,7.085,0.00
0.733,6.529,0.00
0.750,5.940,0.00
0.767,5.410,0.00
0.783,5.007,0.00
0.800,4.664,0.00
0.817,4.349,0.00
0.833,3.971,0.00
0.850,3.506,0.00
0.867,3.013,0.00
0.883,2.616,0.00
0.900,2.314,0.00
0.917,2.019,0.00
0.933,1.747,0.00
0.950,1.471,0.00
0.967,1.187,0.00
0.983,0.905,0.00
1.000,0.611,0.00
1.017,0.361,0.00
1.033,0.102,0.00
1.050,-0.118,0.00
1.067,-0.323,0.00
1.083,-0.524,0.00
1.100,-0.689,0.00
1.117,-0.887,0.00
1.133,-1.077,0.00
1.150,-1.266,0.00
1.167,-1.479,0.00
1.183,-1.665,0.00
1.200,-1.866,0.00
1.217,-2.013,0.00
1.233,-2.113,0.00
1.250,-2.239,0.00
1.267,-2.361,0.00
1.283,-2.532,0.00
1.300,-2.682,0.00
1.317,-2.783,0.00
1.333,-2.869,0.00
1.350,-2.936,0.00
1.367,-3.058,0.00
1.383,-3.129,0.00
1.400,-3.228,0.00
1.417,-3.384,0.00
1.433,-3.489,0.00
1.450,-3.591,0.00
1.467,-3.674,0.00
1.483,-3.758,0.00
1.500,-3.864,0.00
1.517,-4.024,0.00
1.533,-4.171,0.00
1.550,-4.213,0.00
1.567,-4.308,0.00
1.583,-4.424,0.00
1.600,-4.516,0.00
1.617,-4.615,0.00
1.633,-4.717,0.00
1.650,-4.778,0.00
1.667,-4.909,0.00
1.683,-5.078,0.00
1.700,-5.154,0.00
1.717,-5.181,0.00
1.733,-5.284,0.00
1.750,-5.463,0.00
1.767,-5.642,0.00
1.783,-5.749,0.00
1.800,-5.859,0.00
1.817,-5.881,0.00
1.833,-5.903,0.00
1.850,-5.965,0.00
1.867,-6.010,0.00
1.883,-6.017,0.00
1.900,-6.018,0.00
1.917,-6.131,0.00
1.933,-6.188,0.00
1.950,-6.219,0.00
1.967,-6.255,0.00
1.983,-6.287,0.00
2.000,-6.305,0.00
2.017,-6.406,0.00
2.033,-6.518,0.00
2.050,-6.633,0.00
2.067,-6.687,0.00
2.083,-6.759,0.00
2.100,-6.769,0.00
2.117,-6.814,0.00
2.133,-6.853,0.00
2.150,-6.930,0.00
2.167,-6.972,0.00
2.183,-7.018,0.00
2.200,-7.047,0.00
2.217,-7.099,0.00
2.233,-7.114,0.00
2.250,-7.128,0.00
2.267,-7.179,0.00
2.283,-7.194,0.00
2.300,-7.249,0.00
2.317,-7.345,0.00
2.333,-7.444,0.00
2.350,-7.582,0.00
2.367,-7.668,0.00
2.383,-7.621,0.00
2.400,-7.547,0.00
2.417,-7.519,0.00
2.433,-7.629,0.00
2.450,-7.729,0.00
2.467,-7.813,0.00
2.483,-7.812,0.00
2.500,-7.810,0.00
2.517,-7.871,0.00
2.533,-7.980,0.00
2.550,-8.089,0.00
2.567,-8.150,0.00
2.583,-8.147,0.00
2.600,-8.213,0.00
2.617,-8.317,0.00
2.633,-8.444,0.00
2.650,-8.520,0.00
2.667,-8.509,0.00
2.683,-8.476,0.00
2.700,-8.535,0.00
2.717,-8.617,0.00
2.733,-8.684,0.00
2.750,-8.714,0.00
2.767,-8.696,0.00
2.783,-8.687,0.00
2.800,-8.777,0.00
2.817,-8.831,0.00
2.833,-8.893,0.00
2.850,-8.917,0.00
2.867,-8.950,0.00
2.883,-8.912,0.00
2.900,-8.873,0.00
2.917,-8.881,0.00
2.933,-8.966,0.00
2.950,-9.085,0.00
2.967,-9.185,0.00
2.983,-9.193,0.00
3.000,-9.257,0.00
3.017,-9.260,0.00
3.033,-9.275,0.00
3.050,-9.300,0.00
3.067,-9.313,0.00
3.083,-9.325,0.00
3.100,-9.356,0.00
3.117,-9.376,0.00
3.133,-9.401,0.00
3.150,-9.441,0.00
3.167,-9.524,0.00
3.183,-9.596,0.00
3.200,-9.590,0.00
3.217,-9.628,0.00
3.233,-9.706,0.00
3.250,-9.823,0.00
3.267,-9.956,0.00
3.283,-10.059,0.00
3.300,-10.100,0.00
3.317,-10.091,0.00
3.333,-10.131,0.00
3.350,-10.341,0.00
3.367,-10.721,0.00
3.383,-11.234,0.00
3.400,-11.789,0.00
3.417,-12.282,0.00
3.433,-12.631,0.00
3.450,-12.929,0.00
3.467,-13.248,0.00
3.483,-13.534,0.00
3.500,-13.751,0.00
3.517,-13.885,0.00
3.533,-13.991,0.00
3.550,-14.091,0.00
3.567,-14.250,0.00
3.583,-14.337,0.00
3.600,-14.370,0.00
3.617,-14.389,0.00
3.633,-14.445,0.00
3.650,-14.510,0.00
3.667,-14.574,0.00
3.683,-14.577,0.00
3.700,-14.567,0.00
3.717,-14.584,0.00
3.733,-14.651,0.00
3.750,-14.652,0.00
3.767,-14.650,0.00
3.783,-14.629,0.00
3.800,-14.641,0.00
3.817,-14.689,0.00
3.833,-14.730,0.00
3.850,-14.711,0.00
3.867,-14.645,0.00
3.883,-14.623,0.00
3.900,-14.688,0.00
3.917,-14.730,0.00
3.933,-14.702,0.00
3.950,-14.654,0.00
3.967,-14.599,0.00
3.983,-14.579,0.00
4.000,-14.591,0.00
4.017,-14.607,0.00
4.033,-14.573,0.00
4.050,-14.578,0.00
4.067,-14.573,0.00
4.083,-14.562,0.00
4.100,-14.558,0.00
4.117,-14.591,0.00
4.133,-14.606,0.00
4.150,-14.627,0.00
4.167,-14.614,0.00
4.183,-14.584,0.00
4.200,-14.550,0.00
4.217,-14.573,0.00
4.233,-14.559,0.00
4.250,-14.518,0.00
4.267,-14.482,0.00
4.283,-14.479,0.00
4.300,-14.475,0.00
4.317,-14.454,0.00
4.333,-14.405,0.00
4.350,-14.371,0.00
4.367,-14.376,0.00
4.383,-14.430,0.00
4.400,-14.476,0.00
4.417,-14.475,0.00
4.433,-14.462,0.00
4.450,-14.486,0.00
4.467,-14.506,0.00
4.483,-14.492,0.00
4.500,-14.466,0.00
4.517,-14.431,0.00
4.533,-14.406,0.00
4.550,-14.322,0.00
4.567,-14.200,0.00
4.583,-14.104,0.00
4.600,-14.039,0.00
4.617,-14.000,0.00
4.633,-13.973,0.00
4.650,-13.932,0.00
4.667,-13.913,0.00
4.683,-13.908,0.00
4.700,-13.912,0.00
4.717,-13.851,0.00
4.733,-13.735,0.00
4.750,-13.631,0.00
4.767,-13.538,0.00
4.783,-13.433,0.00
4.800,-13.265,0.00
4.817,-13.035,0.00
4.833,-12.792,0.00
4.850,-12.519,0.00
4.867,-12.260,0.00
4.883,-12.056,0.00
4.900,-11.838,0.00
4.917,-11.562,0.00
4.933,-11.274,0.00
4.950,-11.005,0.00
4.967,-10.732,0.00
4.983,-10.513,0.00
5.000,-10.314,0.00
5.017,-10.070,0.00
5.033,-9.826,0.00
5.050,-9.592,0.00
5.067,-9.353,0.00
5.083,-9.112,0.00
5.100,-8.870,0.00
5.117,-8.632,0.00
5.133,-8.431,0.00
5.150,-8.226,0.00
5.167,-8.010,0.00
5.183,-7.878,0.00
5.200,-7.820,0.00
5.217,-7.756,0.00
5.233,-7.693,0.00
5.250,-7.605,0.00
5.267,-7.478,0.00
5.283,-7.377,0.00
5.300,-7.313,0.00
5.317,-7.226,0.00
5.333,-7.135,0.00
5.350,-7.108,0.00
5.367,-7.058,0.00
5.383,-6.980,0.00
5.400,-6.873,0.00
5.417,-6.714,0.00
5.433,-6.678,0.00
5.450,-6.875,0.00
5.467,-7.262,0.00
5.483,-7.689,0.00
5.500,-7.956,0.00
5.517,-7.991,0.00
5.533,-7.862,0.00
5.550,-7.713,0.00
5.567,-7.649,0.00
5.583,-7.602,0.00
5.600,-7.563,0.00
5.617,-7.512,0.00
5.633,-7.408,0.00
5.650,-7.234,0.00
5.667,-7.040,0.00
5.683,-6.929,0.00
5.700,-6.917,0.00
5.717,-6.936,0.00
5.733,-7.012,0.00
5.750,-7.078,0.00
5.767,-7.125,0.00
5.783,-7.214,0.00
5.800,-7.284,0.00
5.817,-7.313,0.00
5.833,-7.279,0.00
5.850,-7.220,0.00
5.867,-7.148,0.00
5.883,-7.097,0.00
5.900,-7.115,0.00
5.917,-7.176,0.00
5.933,-7.228,0.00
5.950,-7.243,0.00
5.967,-7.275,0.00
5.983,-7.313,0.00
6.000,-7.326,0.00
6.017,-7.330,0.00
6.033,-7.328,0.00
6.050,-7.304,0.00
6.067,-7.318,0.00
6.083,-7.369,0.00
6.100,-7.400,0.00
6.117,-7.423,0.00
6.133,-7.448,0.00
6.150,-7.466,0.00
6.167,-7.492,0.00
6.183,-7.576,0.00
6.200,-7.645,0.00
6.217,-7.620,0.00
6.233,-7.568,0.00
6.250,-7.462,0.00
6.267,-7.399,0.00
6.283,-7.453,0.00
6.300,-7.592,0.00
6.317,-7.695,0.00
6.333,-7.725,0.00
6.350,-7.708,0.00
6.367,-7.683,0.00
6.383,-7.731,0.00
6.400,-7.832,0.00
6.417,-7.940,0.00
6.433,-7.990,0.00
6.450,-7.973,0.00
6.467,-7.980,0.00
6.483,-8.009,0.00
6.500,-7.903,0.00
6.517,-7.981,0.00
6.533,-8.461,0.00
6.550,-8.734,0.00
6.567,-4.684,0.00
6.583,18.283,0.00
6.600,-4.169,0.00
6.617,-41.020,0.00
6.633,21.727,0.00
6.650,287.360,0.00
6.667,739.063,0.00
6.683,1417.570,0.00
6.700,2155.209,0.00
6.717,2728.306,0.00
6.733,3032.633,0.00
6.750,3112.808,0.00
6.767,3034.145,0.00
6.783,2953.985,0.00
6.800,2957.514,0.00
6.817,2992.621,0.00
6.833,2955.901,0.00
6.850,2933.583,0.00
6.867,2908.465,0.00
6.883,2888.610,0.00
6.900,2877.267,0.00
6.917,2872.841,0.00
6.933,2872.660,0.00
6.950,2874.013,0.00
6.967,2877.938,0.00
6.983,2883.636,0.00
7.000,2888.382,0.00
7.017,2891.771,0.00
7.033,2894.381,0.00
7.050,2896.116,0.00
7.067,2897.971,0.00
7.083,2899.652,0.00
7.100,2901.601,0.00
7.117,2902.948,0.00
7.133,2904.357,0.00
7.150,2905.873,0.00
7.167,2907.411,0.00
7.183,2910.025,0.00
7.200,2912.386,0.00
7.217,2914.101,0.00
7.233,2914.600,0.00
7.250,2914.873,0.00
7.267,2914.478,0.00
7.283,2914.365,0.00
7.300,2913.104,0.00
7.317,2911.999,0.00
7.333,2909.285,0.00
7.350,2905.215,0.00
7.367,2899.804,0.00
7.383,2893.120,0.00
7.400,2884.933,0.00
7.417,2877.646,0.00
7.433,2870.279,0.00
7.450,2864.161,0.00
7.467,2857.166,0.00
7.483,2850.486,0.00
7.500,2843.248,0.00
7.517,2836.570,0.00
7.533,2829.910,0.00
7.550,2823.018,0.00
7.567,2815.671,0.00
7.583,2808.284,0.00
7.600,2801.634,0.00
7.617,2795.529,0.00
7.633,2789.285,0.00
7.650,2783.676,0.00
7.667,2778.516,0.00
7.683,2773.008,0.00
7.700,2766.683,0.00
7.717,2760.082,0.00
7.733,2753.965,0.00
7.750,2748.198,0.00
7.767,2743.384,0.00
7.783,2738.386,0.00
7.800,2731.836,0.00
7.817,2724.895,0.00
7.833,2717.378,0.00
7.850,2711.294,0.00
7.867,2706.495,0.00
7.883,2701.747,0.00
7.900,2696.078,0.00
7.917,2690.223,0.00
7.933,2683.693,0.00
7.950,2678.078,0.00
7.967,2671.907,0.00
7.983,2665.684,0.00
8.000,2659.971,0.00
8.017,2655.225,0.00
8.033,2650.383,0.00
8.050,2645.361,0.00
8.067,2639.268,0.00
8.083,2634.062,0.00
8.100,2628.586,0.00
8.117,2623.761,0.00
8.133,2618.517,0.00
8.150,2612.293,0.00
8.167,2606.498,0.00
8.183,2600.579,0.00
8.200,2595.740,0.00
8.217,2591.322,0.00
8.233,2586.449,0.00
8.250,2581.379,0.00
8.267,2575.916,0.00
8.283,2570.874,0.00
8.300,2566.933,0.00
8.317,2562.706,0.00
8.333,2558.426,0.00
8.350,2553.461,0.00
8.367,2548.972,0.00
8.383,2545.024,0.00
8.400,2542.651,0.00
8.417,2540.912,0.00
8.433,2539.121,0.00
8.450,2537.294,0.00
8.467,2535.323,0.00
8.483,2533.551,0.00
8.500,2532.900,0.00
8.517,2533.324,0.00
8.533,2533.622,0.00
8.550,2533.506,0.00
8.567,2533.154,0.00
8.583,2532.724,0.00
8.600,2532.319,0.00
8.617,2532.021,0.00
8.633,2531.350,0.00
8.650,2529.920,0.00
8.667,2528.096,0.00
8.683,2526.191,0.00
8.700,2523.289,0.00
8.717,2520.509,0.00
8.733,2517.689,0.00
8.750,2515.103,0.00
8.767,2512.294,0.00
8.783,2509.172,0.00
8.800,2505.731,0.00
8.817,2501.395,0.00
8.833,2497.658,0.00
8.850,2492.861,0.00
8.867,2487.347,0.00
8.883,2482.398,0.00
8.900,2477.928,0.00
8.917,2474.376,0.00
8.933,2471.204,0.00
8.950,2467.941,0.00
8.967,2463.617,0.00
8.983,2459.377,0.00
9.000,2456.923,0.00
9.017,2454.474,0.00
9.033,2451.644,0.00
9.050,2448.725,0.00
9.067,2445.417,0.00
9.083,2442.226,0.00
9.100,2438.251,0.00
9.117,2433.073,0.00
9.133,2426.324,0.00
9.150,2419.827,0.00
9.167,2413.577,0.00
9.183,2411.301,0.00
9.200,2407.187,0.00
9.217,2396.850,0.00
9.233,2389.651,0.00
9.250,2397.163,0.00
9.267,2433.863,0.00
9.283,2502.762,0.00
9.300,2583.770,0.00
9.317,2647.357,0.00
9.333,2675.693,0.00
9.350,2676.878,0.00
9.367,2665.134,0.00
9.383,2654.125,0.00
9.400,2650.257,0.00
9.417,2645.490,0.00
9.433,2636.956,0.00
9.450,2627.391,0.00
9.467,2618.685,0.00
9.483,2612.034,0.00
9.500,2606.272,0.00
9.517,2599.483,0.00
9.533,2593.917,0.00
9.550,2588.478,0.00
9.567,2580.629,0.00
9.583,2574.208,0.00
9.600,2573.344,0.00
9.617,2586.895,0.00
9.633,2619.556,0.00
9.650,2657.573,0.00
9.667,2686.091,0.00
9.683,2692.069,0.00
9.700,2674.190,0.00
9.717,2650.697,0.00
9.733,2643.136,0.00
9.750,2670.943,0.00
9.767,2734.854,0.00
9.783,2817.416,0.00
9.800,2871.854,0.00
9.817,2895.745,0.00
9.833,2934.215,0.00
9.850,2958.095,0.00
9.867,2896.002,0.00
9.883,2666.818,0.00
9.900,2251.827,0.00
9.917,1750.181,0.00
9.933,1281.368,0.00
9.950,908.875,0.00
9.967,612.118,0.00
9.983,378.334,0.00
10.000,219.614,0.00
10.017,119.378,0.00
10.033,69.714,0.00
10.050,38.213,0.00
10.067,6.549,0.00
10.083,-9.742,0.00
10.100,-16.627,0.00
10.117,-16.698,0.00
10.133,-15.077,0.00
10.150,-13.194,0.00
10.167,-10.777,0.00
10.183,-8.555,0.00
10.200,-6.832,0.00
10.217,-5.605,0.00
10.233,-4.739,0.00
10.250,-4.106,0.00
10.267,-3.614,0.00
10.283,-3.287,0.00
10.300,-3.092,0.00
10.317,-2.876,0.00
10.333,-2.619,0.00
10.350,-2.282,0.00
10.367,-1.666,0.00
10.383,-0.946,0.00
10.400,-0.537,0.00
10.417,-0.641,0.00
10.433,-1.226,0.00
10.450,-2.025,0.00
10.467,-2.578,0.00
10.483,-2.702,0.00
10.500,-2.655,0.00
10.517,-2.685,0.00
10.533,-2.566,0.00
10.550,-2.271,0.00
10.567,-2.038,0.00
10.583,-1.955,0.00
10.600,-2.138,0.00
10.617,-2.358,0.00
10.633,-2.371,0.00
10.650,-2.176,0.00
10.667,-1.953,0.00
10.683,-1.801,0.00
10.700,-1.700,0.00
10.717,-1.991,0.00
10.733,-1.669,0.00
10.750,-0.855,0.00
10.767,-0.140,0.00
10.783,0.086,0.00
10.800,-0.284,0.00
10.817,-0.948,0.00
10.833,-1.342,0.00
10.850,-1.192,0.00
10.867,-0.866,0.00
10.883,-1.007,0.00
10.900,-0.803,0.00
10.917,-0.595,0.00
10.933,-0.366,0.00
10.950,-0.206,0.00
10.967,-0.125,0.00
10.983,-0.158,0.00
11.000,-0.193,0.00
11.017,-0.265,0.00
11.033,-0.270,0.00
11.050,-0.150,0.00
11.067,-0.024,0.00
11.083,0.093,0.00
11.100,0.159,0.00
11.117,0.221,0.00
11.133,0.322,0.00
11.150,0.372,0.00
11.167,0.455,0.00
11.183,0.501,0.00
11.200,0.625,0.00
11.217,0.784,0.00
11.233,0.840,0.00
11.250,0.833,0.00
11.267,0.673,0.00
11.283,0.608,0.00
11.300,0.891,0.00
11.317,1.322,0.00
11.333,1.585,0.00
11.350,1.527,0.00
11.367,1.289,0.00
11.383,1.026,0.00
11.400,0.979,0.00
11.417,1.235,0.00
11.433,1.462,0.00
11.450,1.581,0.00
11.467,2.143,0.00
11.483,2.847,0.00
11.500,2.905,0.00
11.517,2.041,0.00
11.533,0.492,0.00
11.550,-0.989,0.00
11.567,-1.724,0.00
11.583,-1.721,0.00
11.600,-1.664,0.00
11.617,-1.751,0.00
11.633,-1.494,0.00
11.650,-0.986,0.00
11.667,-0.421,0.00
11.683,-0.127,0.00
11.700,-0.323,0.00
11.717,-0.702,0.00
11.733,-1.020,0.00
11.750,-1.207,0.00
11.767,-1.302,0.00
11.783,-1.354,0.00
11.800,-1.347,0.00
11.817,-1.371,0.00
11.833,-1.324,0.00
11.850,-1.395,0.00
11.867,-1.474,0.00
11.883,-1.423,0.00
11.900,-1.346,0.00
11.917,-1.263,0.00
11.933,-1.186,0.00
11.950,-1.194,0.00
11.967,-1.108,0.00
11.983,-1.016,0.00
12.000,-0.960,0.00
12.017,-1.062,0.00
12.033,-1.369,0.00
12.050,-1.675,0.00
12.067,-0.522,0.00
12.083,4.021,0.00
12.100,6.197,0.00
12.117,-6.552,0.00
12.133,16.525,0.00
12.150,212.862,0.00
12.167,620.834,0.00
12.183,1042.087,0.00
12.200,1198.074,0.00
12.217,976.815,1.40
12.233,529.980,1.42
12.250,140.080,1.43
12.267,-20.112,1.45
12.283,-14.103,1.47
12.300,8.573,1.49
12.317,4.142,1.50
12.333,-1.612,1.52
12.350,-1.978,1.54
12.367,-1.404,1.56
12.383,-1.162,1.58
12.400,-1.049,1.59
12.417,-1.000,1.61
12.433,-0.835,1.63
12.450,-0.670,1.65
12.467,-0.733,1.67
12.483,-0.916,1.69
12.500,-1.095,1.71
12.517,-1.189,1.73
12.533,-1.207,1.75
12.550,-1.099,1.77
12.567,-1.167,1.79
12.583,-1.289,1.81
12.600,-1.422,1.83
12.617,-1.443,1.85
12.633,-1.468,1.87
12.650,-1.246,1.89
12.667,-0.972,1.91
12.683,-0.678,1.93
12.700,-0.568,1.95
12.717,-0.631,1.98
12.733,-0.846,2.00
12.750,-0.963,2.02
12.767,-0.990,2.04
12.783,-0.921,2.06
12.800,-0.921,2.09
12.817,-0.941,2.11
12.833,-0.920,2.13
12.850,-0.677,2.16
12.867,-0.393,2.18
12.883,-0.268,2.20
12.900,-0.359,2.23
12.917,-0.589,2.25
12.933,-0.756,2.27
12.950,-0.902,2.30
12.967,-0.895,2.32
12.983,-0.866,2.35
13.000,-0.740,2.37
13.017,-0.592,2.40
13.033,-0.503,2.42
13.050,-0.433,2.45
13.067,-0.287,2.47
13.083,-0.471,2.50
13.100,-0.528,2.52
13.117,-0.367,2.55
13.133,0.050,2.57
13.150,0.242,2.60
13.167,0.179,2.63
13.183,-0.213,2.65
13.200,-0.646,2.68
13.217,-0.737,2.71
13.233,-0.470,2.73
13.250,-0.424,2.76
13.267,-0.410,2.79
13.283,-0.408,2.82
13.300,-0.353,2.85
13.317,-0.322,2.87
13.333,-0.265,2.90
13.350,-0.291,2.93
13.367,-0.370,2.96
13.383,-0.407,2.99
13.400,-0.419,3.02
13.417,-0.402,3.05
13.433,-0.395,3.08
13.450,-0.358,3.11
13.467,-0.300,3.14
13.483,-0.210,3.17
13.500,-0.107,3.20
13.517,-0.037,3.23
13.533,-0.060,3.26
13.550,-0.129,3.29
13.567,-0.142,3.32
13.583,-0.003,3.35
13.600,0.173,3.39
13.617,0.251,3.42
13.633,0.153,3.45
13.650,0.066,3.48
13.667,0.123,3.51
13.683,0.281,3.55
13.700,0.328,3.58
13.717,0.210,3.61
13.733,0.104,3.65
13.750,0.145,3.68
13.767,0.284,3.72
13.783,0.355,3.75
13.800,0.318,3.78
13.817,0.273,3.82
13.833,0.237,3.85
13.850,0.249,3.89
13.867,0.307,3.92
13.883,0.348,3.96
13.900,0.373,3.99
13.917,0.355,4.03
13.933,0.310,4.07
13.950,0.282,4.10
13.967,0.218,4.14
13.983,0.102,4.18
14.000,0.054,4.21
14.017,0.058,4.25
14.033,0.088,4.29
14.050,0.108,4.33
14.067,0.108,4.36
14.083,0.068,4.40
14.100,0.091,4.44
14.117,0.203,4.48
14.133,0.271,4.52
14.150,0.287,4.56
14.167,0.297,4.60
14.183,0.240,4.63
14.200,0.176,4.67
14.217,0.207,4.71
14.233,0.346,4.75
14.250,0.513,4.80
14.267,0.635,4.84
14.283,0.664,4.88
14.300,0.555,4.92
14.317,0.389,4.96
14.333,0.312,5.00
14.350,0.325,5.04
14.367,0.393,5.09
14.383,0.490,5.13
14.400,0.505,5.17
14.417,0.445,5.21
14.433,0.345,5.26
14.450,0.235,5.30
14.467,0.174,5.34
14.483,0.120,5.39
14.500,0.107,5.43
14.517,0.143,5.48
14.533,0.200,5.52
14.550,0.258,5.56
14.567,0.278,5.61
14.583,0.280,5.66
14.600,0.235,5.70
14.617,0.196,5.75
14.633,0.334,5.79
14.650,0.557,5.84
14.667,0.734,5.89
14.683,0.898,5.93
14.700,1.071,5.98
14.717,1.237,6.03
14.733,1.333,6.07
14.750,1.281,6.12
14.767,1.039,6.17
14.783,0.736,6.22
14.800,0.561,6.27
14.817,0.540,6.32
14.833,0.503,6.36
14.850,0.414,6.41
14.867,0.347,6.46
14.883,0.311,6.51
14.900,0.295,6.56
14.917,0.344,6.61
14.933,0.532,6.66
14.950,0.886,6.72
14.967,1.446,6.77
14.983,2.195,6.82
15.000,3.049,6.87
15.017,3.852,6.92
15.033,4.535,6.97
15.050,4.965,7.03
15.067,5.079,7.08
15.083,4.996,7.13
15.100,4.807,7.19
15.117,4.549,7.24
15.133,4.351,7.29
15.150,4.162,7.35
15.167,3.947,7.40
15.183,3.776,7.46
15.200,3.785,7.51
15.217,4.008,7.57
15.233,4.365,7.62
15.250,4.917,7.68
15.267,5.762,7.73
15.283,6.986,7.79
15.300,8.455,7.85
15.317,9.437,7.90
15.333,9.282,7.96
15.350,8.065,8.02
15.367,6.366,8.07
15.383,4.937,8.13
15.400,4.214,8.19
15.417,4.228,8.25
15.433,4.675,8.31
15.450,5.211,8.37
15.467,5.842,8.43
15.483,6.363,8.48
15.500,6.792,8.54
15.517,7.176,8.60
15.533,7.550,8.66
15.550,8.458,8.73
15.567,10.273,8.79
15.583,12.416,8.85
15.600,17.318,8.91
15.617,28.499,8.97
15.633,44.533,9.03
15.650,58.017,9.09
15.667,61.175,9.16
15.683,51.739,9.22
15.700,34.696,9.28
15.717,18.752,9.35
15.733,8.884,9.41
15.750,3.301,9.47
15.767,-0.042,9.54
15.783,-1.848,9.60
15.800,-2.663,9.67
15.817,-2.894,9.73
15.833,-2.915,9.80
15.850,-2.718,9.86
15.867,-2.593,9.93
15.883,-2.683,10.00
15.900,-3.048,10.06
15.917,-3.441,10.13
15.933,-3.524,10.20
15.950,-3.374,10.26
15.967,-3.189,10.33
15.983,-3.139,10.40
16.000,-3.256,10.47
16.017,-3.286,10.54
16.033,-3.186,10.60
16.050,-2.882,10.67
16.067,-2.443,10.74
16.083,-1.859,10.81
16.100,-1.241,10.88
16.117,-0.497,10.95
16.133,0.197,11.02
16.150,0.748,11.09
16.167,1.144,11.16
16.183,1.680,11.24
16.200,2.452,11.31
16.217,3.627,11.38
16.233,5.163,11.45
16.250,6.897,11.52
16.267,8.695,11.60
16.283,10.816,11.67
16.300,12.923,11.74
16.317,14.127,11.82
16.333,13.358,11.89
16.350,10.590,11.97
16.367,6.728,12.04
16.383,3.454,12.12
16.400,1.634,12.19
16.417,0.974,12.27
16.433,0.607,12.34
16.450,0.116,12.42
16.467,-0.221,12.49
16.483,-0.126,12.57
16.500,0.443,12.65
16.517,1.234,12.72
16.533,2.083,12.80
16.550,2.905,12.88
16.567,3.538,12.96
16.583,3.894,13.04
16.600,3.759,13.12
16.617,3.321,13.19
16.633,2.958,13.27
16.650,2.705,13.35
16.667,2.722,13.43
16.683,2.869,13.51
16.700,3.448,13.59
16.717,4.563,13.68
16.733,6.197,13.76
16.750,8.161,13.84
16.767,10.040,13.92
16.783,11.701,14.00
16.800,12.287,14.08
16.817,11.232,14.17
16.833,8.769,14.25
16.850,5.594,14.33
16.867,2.944,14.42
16.883,1.709,14.50
16.900,1.594,14.58
16.917,2.012,14.67
16.933,2.628,14.75
16.950,3.318,14.84
16.967,3.724,14.92
16.983,3.979,15.01
17.000,3.903,15.10
17.017,3.724,15.18
17.033,3.617,15.27
17.050,3.806,15.36
17.067,4.076,15.44
17.083,4.455,15.53
17.100,4.787,15.62
17.117,5.075,15.71
17.133,5.155,15.80
17.150,5.184,15.88
17.167,5.216,15.97
17.183,5.481,16.06
17.200,5.909,16.15
17.217,6.292,16.24
17.233,6.586,16.33
17.250,7.280,16.42
17.267,9.181,16.51
17.283,14.436,16.61
17.300,25.279,16.70
17.317,41.802,16.79
17.333,59.665,16.88
17.350,71.544,16.97
17.367,72.100,17.07
17.383,61.314,17.16
17.400,44.734,17.25
17.417,29.356,17.35
17.433,18.918,17.44
17.450,13.350,17.53
17.467,10.667,17.63
17.483,8.969,17.72
17.500,7.895,17.82
17.517,7.362,17.91
17.533,7.554,18.01
17.550,8.270,18.11
17.567,9.000,18.20
17.583,9.220,18.30
17.600,9.116,18.40
17.617,9.585,18.49
17.633,11.543,18.59
17.650,14.656,18.69
17.667,17.483,18.79
17.683,17.960,18.89
17.700,15.581,18.99
17.717,11.743,19.09
17.733,8.510,19.19
17.750,7.083,19.28
17.767,7.461,19.39
17.783,8.835,19.49
17.800,10.529,19.59
17.817,12.180,19.69
17.833,13.759,19.79
17.850,15.221,19.89
17.867,16.772,19.99
17.883,18.438,20.10
17.900,20.018,20.20
17.917,21.470,20.30
17.933,22.551,20.40
17.950,22.609,20.51
17.967,21.103,20.61
17.983,18.189,20.72
18.000,14.904,20.82
18.017,12.227,20.93
18.033,11.088,21.03
18.050,11.431,21.14
18.067,13.131,21.24
18.083,15.861,21.35
18.100,18.948,21.46
18.117,21.485,21.56
18.133,22.746,21.67
18.150,23.027,21.78
18.167,24.408,21.88
18.183,29.191,21.99
18.200,37.757,22.10
18.217,47.338,22.21
18.233,53.569,22.32
18.250,53.870,22.43
18.267,53.067,22.54
18.283,67.637,22.65
18.300,120.055,22.76
18.317,217.916,22.87
18.333,335.967,22.98
18.350,424.119,23.09
18.367,440.798,23.20
18.383,385.420,23.31
18.400,300.158,23.43
18.417,241.799,23.54
18.433,244.913,23.65
18.450,304.619,23.76
18.467,386.301,23.88
18.483,446.187,23.99
18.500,454.030,24.11
18.517,410.693,24.22
18.533,351.522,24.33
18.550,323.285,24.45
18.567,350.644,24.56
18.583,417.936,24.68
18.600,478.556,24.80
18.617,487.012,24.91
18.633,429.349,25.03
18.650,327.795,25.15
18.667,220.638,25.26
18.683,136.969,25.38
18.700,86.397,25.50
18.717,61.851,25.62
18.733,52.437,25.74
18.750,51.749,25.85
18.767,57.515,25.97
18.783,68.024,26.09
18.800,79.530,26.21
18.817,86.527,26.33
18.833,84.769,26.45
18.850,74.232,26.57
18.867,59.187,26.69
18.883,45.030,26.82
18.900,35.492,26.94
18.917,31.169,27.06
18.933,30.421,27.18
18.950,30.981,27.30
18.967,31.213,27.43
18.983,30.414,27.55
19.000,28.961,27.67
19.017,27.864,27.80
19.033,27.878,27.92
19.050,29.125,28.05
19.067,31.201,28.17
19.083,33.429,28.30
19.100,35.220,28.42
19.117,36.042,28.55
19.133,35.545,28.67
19.150,33.811,28.80
19.167,31.297,28.93
19.183,28.706,29.05
19.200,26.735,29.18
19.217,25.664,29.31
19.233,25.216,29.44
19.250,24.824,29.56
19.267,23.986,29.69
19.283,22.704,29.82
19.300,21.431,29.95
19.317,20.643,30.08
19.333,20.713,30.21
19.350,21.850,30.34
19.367,24.015,30.47
19.383,26.782,30.60
19.400,29.501,30.73
19.417,31.481,30.86
19.433,32.131,31.00
19.450,31.509,31.13
19.467,30.292,31.26
19.483,29.237,31.39
19.500,28.787,31.53
19.517,28.942,31.66
19.533,29.543,31.79
19.550,30.539,31.93
19.567,32.119,32.06
19.583,34.514,32.20
19.600,37.553,32.33
19.617,40.645,32.47
19.633,43.269,32.60
19.650,45.234,32.74
19.667,46.635,32.87
19.683,48.015,33.01
19.700,49.842,33.15
19.717,52.140,33.28
19.733,54.703,33.42
19.750,57.418,33.56
19.767,60.520,33.70
19.783,63.774,33.83
19.800,66.222,33.97
19.817,66.437,34.11
19.833,63.389,34.25
19.850,57.607,34.39
19.867,50.872,34.53
19.883,45.436,34.67
19.900,42.916,34.81
19.917,43.907,34.95
19.933,48.351,35.09
19.950,55.602,35.23
19.967,64.759,35.38
19.983,74.356,35.52
20.000,83.742,35.66
20.017,94.522,35.80
20.033,111.077,35.95
20.050,141.373,36.09
20.067,196.480,36.23
20.083,281.319,36.38
20.100,384.595,36.52
20.117,481.182,36.66
20.133,545.311,36.81
20.150,565.797,36.95
20.167,551.551,37.10
20.183,520.671,37.25
20.200,485.080,37.39
20.217,445.472,37.54
20.233,398.609,37.69
20.250,343.405,37.83
20.267,282.757,37.98
20.283,223.155,38.13
20.300,170.351,38.27
20.317,127.923,38.42
20.333,96.816,38.57
20.350,75.046,38.72
20.367,59.821,38.87
20.383,48.981,39.02
20.400,41.165,39.17
20.417,35.584,39.32
20.433,31.461,39.47
20.450,28.618,39.62
20.467,26.502,39.77
20.483,24.982,39.92
20.500,24.314,40.07
20.517,24.480,40.23
20.533,26.283,40.38
20.550,30.629,40.53
20.567,39.314,40.68
20.583,54.900,40.84
20.600,80.532,40.99
20.617,119.134,41.14
20.633,173.854,41.30
20.650,246.867,41.45
20.667,337.556,41.61
20.683,441.165,41.76
20.700,547.715,41.92
20.717,640.379,42.07
20.733,700.070,42.23
20.750,712.128,42.38
20.767,671.182,42.54
20.783,585.144,42.70
20.800,473.103,42.85
20.817,357.433,43.01
20.833,255.792,43.17
20.850,177.371,43.33
20.867,123.101,43.49
20.883,87.985,43.64
20.900,66.618,43.80
20.917,55.550,43.96
20.933,50.353,44.12
20.950,50.982,44.28
20.967,63.562,44.44
20.983,113.869,44.60
21.000,235.861,44.76
21.017,438.601,44.92
21.033,692.537,45.09
21.050,941.581,45.25
21.067,1132.045,45.41
21.083,1236.720,45.57
21.100,1256.428,45.73
21.117,1209.653,45.90
21.133,1112.885,46.06
21.150,985.906,46.22
21.167,847.295,46.39
21.183,707.439,46.55
21.200,572.792,46.72
21.217,448.484,46.88
21.233,339.986,47.05
21.250,251.110,47.21
21.267,182.667,47.38
21.283,134.400,47.54
21.300,102.899,47.71
21.317,84.040,47.87
21.333,73.390,48.04
21.350,68.359,48.21
21.367,67.481,48.38
21.383,70.558,48.54
21.400,78.235,48.71
21.417,91.222,48.88
21.433,109.522,49.05
21.450,130.932,49.22
21.467,152.006,49.39
21.483,169.608,49.56
21.500,182.063,49.72
21.517,188.211,49.89
21.533,187.529,50.06
21.550,180.606,50.24
21.567,168.704,50.41
21.583,154.352,50.58
21.600,139.621,50.75
21.617,125.652,50.92
21.633,113.268,51.09
21.650,102.751,51.27
21.667,95.102,51.44
21.683,90.609,51.61
21.700,88.836,51.78
21.717,88.579,51.96
21.733,88.774,52.13
21.750,88.396,52.31
21.767,86.339,52.48
21.783,81.950,52.65
21.800,75.431,52.83
21.817,67.404,53.00
21.833,59.089,53.18
21.850,51.522,53.36
21.867,45.384,53.53
21.883,41.088,53.71
21.900,38.521,53.89
21.917,37.250,54.06
21.933,36.890,54.24
21.950,36.424,54.42
21.967,35.844,54.59
21.983,35.531,54.77
22.000,35.214,54.95
22.017,34.528,55.13
22.033,33.312,55.31
22.050,31.879,55.49
22.067,30.493,55.67
22.083,29.929,55.85
22.100,30.480,56.03
22.117,31.711,56.21
22.133,34.139,56.39
22.150,38.070,56.57
22.167,44.216,56.75
22.183,52.999,56.93
22.200,66.224,57.12
22.217,86.598,57.30
22.233,116.327,57.48
22.250,154.330,57.66
22.267,197.098,57.85
22.283,240.633,58.03
22.300,282.550,58.21
22.317,323.770,58.40
22.333,363.739,58.58
22.350,398.597,58.76
22.367,421.209,58.95
22.383,426.191,59.13
22.400,412.445,59.32
22.417,382.972,59.51
22.433,342.766,59.69
22.450,296.198,59.88
22.467,246.990,60.06
22.483,198.792,60.25
22.500,154.247,60.44
22.517,116.132,60.62
22.533,85.101,60.81
22.550,61.845,61.00
22.567,45.812,61.19
22.583,35.906,61.38
22.600,29.952,61.57
22.617,26.374,61.75
22.633,24.055,61.94
22.650,22.611,62.13
22.667,22.505,62.32
22.683,24.074,62.51
22.700,27.749,62.70
22.717,33.778,62.89
22.733,41.523,63.08
22.750,50.115,63.28
22.767,58.668,63.47
22.783,67.102,63.66
22.800,75.427,63.85
22.817,85.027,64.04
22.833,96.782,64.24
22.850,110.999,64.43
22.867,127.588,64.62
22.883,145.351,64.81
22.900,162.741,65.01
22.917,178.173,65.20
22.933,189.840,65.40
22.950,197.344,65.59
22.967,200.813,65.79
22.983,201.402,65.98
23.000,200.084,66.18
23.017,196.845,66.37
23.033,190.605,66.57
23.050,180.468,66.76
23.067,166.549,66.96
23.083,149.842,67.16
23.100,131.546,67.35
23.117,112.997,67.55
23.133,94.848,67.75
23.150,77.794,67.95
23.167,62.468,68.14
23.183,49.325,68.34
23.200,39.049,68.54
23.217,32.424,68.74
23.233,29.566,68.94
23.250,29.951,69.14
23.267,32.443,69.34
23.283,35.591,69.54
23.300,38.434,69.74
23.317,40.352,69.94
23.333,40.919,70.14
23.350,40.220,70.34
23.367,38.417,70.54
23.383,35.660,70.74
23.400,31.813,70.94
23.417,26.978,71.15
23.433,21.858,71.35
23.450,17.426,71.55
23.467,14.375,71.75
23.483,12.733,71.96
23.500,12.192,72.16
23.517,12.221,72.36
23.533,12.594,72.57
23.550,13.230,72.77
23.567,13.822,72.98
23.583,14.144,73.18
23.600,14.162,73.38
23.617,14.134,73.59
23.633,14.164,73.80
23.650,14.292,74.00
23.667,14.416,74.21
23.683,14.324,74.41
23.700,14.174,74.62
23.717,14.022,74.83
23.733,13.913,75.03
23.750,13.688,75.24
23.767,13.347,75.45
23.783,13.247,75.66
23.800,13.462,75.86
23.817,13.972,76.07
23.833,15.081,76.28
23.850,17.040,76.49
23.867,19.866,76.70
23.883,23.568,76.91
23.900,28.224,77.12
23.917,34.231,77.33
23.933,41.065,77.54
23.950,46.892,77.75
23.967,49.822,77.96
23.983,49.264,78.17
24.000,46.546,78.38
24.017,43.232,78.59
24.033,39.797,78.80
24.050,35.780,79.02
24.067,30.806,79.23
24.083,25.716,79.44
24.100,21.283,79.65
24.117,17.597,79.86
24.133,14.525,80.08
24.150,11.787,80.29
24.167,9.440,80.51
24.183,7.491,80.72
24.200,5.942,80.93
24.217,4.806,81.15
24.233,4.050,81.36
24.250,3.588,81.58
24.267,3.241,81.79
24.283,2.888,82.01
24.300,2.474,82.22
24.317,2.189,82.44
24.333,2.103,82.66
24.350,2.066,82.87
24.367,2.014,83.09
24.383,1.920,83.30
24.400,1.791,83.52
24.417,1.838,83.74
24.433,2.080,83.96
24.450,2.342,84.17
24.467,2.541,84.39
24.483,2.832,84.61
24.500,3.246,84.83
24.517,3.768,85.05
24.533,4.384,85.27
24.550,4.917,85.49
24.567,5.276,85.71
24.583,5.537,85.93
24.600,5.674,86.15
24.617,5.670,86.37
24.633,5.619,86.59
24.650,5.556,86.81
24.667,5.502,87.03
24.683,5.584,87.25
24.700,5.857,87.47
24.717,6.357,87.69
24.733,7.013,87.92
24.750,7.620,88.14
24.767,8.171,88.36
24.783,8.725,88.58
24.800,9.255,88.81
24.817,9.523,89.03
24.833,9.453,89.25
24.850,9.123,89.48
24.867,8.627,89.70
24.883,8.100,89.92
24.900,7.444,90.15
24.917,6.611,90.37
24.933,5.747,90.60
24.950,4.920,90.82
24.967,4.272,91.05
24.983,3.730,91.27
25.000,3.317,91.50
25.017,2.999,91.73
25.033,2.727,91.95
25.050,2.437,92.18
25.067,2.107,92.41
25.083,1.828,92.63
25.100,1.603,92.86
25.117,1.424,93.09
25.133,1.302,93.32
25.150,1.230,93.54
25.167,1.225,93.77
25.183,1.248,94.00
25.200,1.307,94.23
25.217,1.397,94.46
25.233,1.453,94.69
25.250,1.450,94.92
25.267,1.535,95.15
25.283,1.656,95.38
25.300,1.858,95.61
25.317,2.133,95.84
25.333,2.476,96.07
25.350,3.020,96.30
25.367,3.775,96.53
25.383,4.817,96.76
25.400,6.156,96.99
25.417,8.013,97.22
25.433,10.616,97.45
25.450,14.251,97.69
25.467,19.393,97.92
25.483,26.196,98.15
25.500,34.553,98.38
25.517,44.055,98.62
25.533,53.827,98.85
25.550,62.782,99.08
25.567,70.132,99.32
25.583,75.349,99.55
25.600,77.779,99.78
25.617,77.460,100.02
25.633,74.952,100.25
25.650,70.915,100.49
25.667,65.873,100.72
25.683,60.127,100.96
25.700,54.122,101.19
25.717,48.187,101.43
25.733,43.063,101.66
25.750,39.307,101.90
25.767,36.794,102.14
25.783,35.116,102.37
25.800,34.302,102.61
25.817,33.958,102.85
25.833,33.901,103.08
25.850,33.548,103.32
25.867,32.818,103.56
25.883,31.357,103.80
25.900,29.454,104.04
25.917,27.225,104.27
25.933,24.798,104.51
25.950,22.258,104.75
25.967,19.941,104.99
25.983,18.116,105.23
26.000,16.976,105.47
26.017,16.501,105.71
26.033,17.169,105.95
26.050,19.151,106.19
26.067,22.405,106.43
26.083,26.428,106.67
26.100,30.881,106.91
26.117,35.152,107.15
26.133,38.978,107.39
26.150,42.106,107.63
26.167,43.951,107.87
26.183,44.267,108.12
26.200,43.506,108.36
26.217,42.037,108.60
26.233,39.886,108.84
26.250,37.245,109.09
26.267,34.349,109.33
26.283,31.549,109.57
26.300,29.229,109.81
26.317,27.338,110.06
26.333,25.983,110.30
26.350,25.010,110.55
26.367,24.617,110.79
26.383,24.527,111.03
26.400,24.431,111.28
26.417,24.290,111.52
26.433,23.860,111.77
26.450,23.180,112.01
26.467,22.069,112.26
26.483,20.383,112.50
26.500,18.418,112.75
26.517,16.272,113.00
26.533,14.267,113.24
26.550,12.266,113.49
26.567,10.195,113.73
26.583,8.436,113.98
26.600,6.798,114.23
26.617,5.464,114.48
26.633,4.484,114.72
26.650,3.712,114.97
26.667,3.118,115.22
26.683,2.545,115.47
26.700,2.080,115.71
26.717,1.688,115.96
26.733,1.396,116.21
26.750,1.263,116.46
26.767,1.079,116.71
26.783,0.916,116.96
26.800,0.786,117.21
26.817,0.626,117.46
26.833,0.491,117.71
26.850,0.372,117.96
26.867,0.309,118.21
26.883,0.277,118.46
26.900,0.263,118.71
26.917,0.214,118.96
26.933,0.081,119.21
26.950,0.009,119.46
26.967,0.062,119.71
26.983,0.169,119.96
27.000,0.247,120.22
27.017,0.318,120.47
27.033,0.409,120.72
27.050,0.537,120.97
27.067,0.735,121.23
27.083,1.103,121.48
27.100,1.517,121.73
27.117,2.006,121.98
27.133,2.690,122.24
27.150,3.570,122.49
27.167,4.457,122.74
27.183,5.344,123.00
27.200,6.290,123.25
27.217,7.227,123.51
27.233,7.988,123.76
27.250,8.612,124.02
27.267,8.769,124.27
27.283,8.580,124.53
27.300,8.314,124.78
27.317,8.003,125.04
27.333,7.515,125.29
27.350,6.769,125.55
27.367,5.920,125.80
27.383,4.808,126.06
27.400,3.762,126.32
27.417,3.172,126.57
27.433,2.796,126.83
27.450,2.438,127.09
27.467,1.926,127.35
27.483,1.179,127.60
27.500,0.498,127.86
27.517,0.010,128.12
27.533,-0.120,128.38
27.550,-0.221,128.63
27.567,-0.217,128.89
27.583,-0.156,129.15
27.600,-0.058,129.41
27.617,-0.077,129.67
27.633,-0.241,129.93
27.650,-0.363,130.19
27.667,-0.455,130.45
27.683,-0.503,130.71
27.700,-0.467,130.97
27.717,-0.356,131.23
27.733,-0.247,131.49
27.750,-0.240,131.75
27.767,-0.269,132.01
27.783,-0.361,132.27
27.800,-0.448,132.53
27.817,-0.467,132.79
27.833,-0.517,133.05
27.850,-0.595,133.31
27.867,-0.646,133.57
27.883,-0.694,133.83
27.900,-0.679,134.10
27.917,-0.664,134.36
27.933,-0.718,134.62
27.950,-0.760,134.88
27.967,-0.810,135.15
27.983,-1.002,135.41
28.000,-0.885,135.67
28.017,-0.281,135.94
28.033,0.450,136.20
28.050,0.771,136.46
28.067,0.615,136.73
28.083,0.098,136.99
28.100,-0.278,137.25
28.117,-0.151,137.52
28.133,0.321,137.78
28.150,0.644,138.05
28.167,0.799,138.31
28.183,0.864,138.58
28.200,0.851,138.84
28.217,0.877,139.11
28.233,0.950,139.37
28.250,0.981,139.64
28.267,0.946,139.90
28.283,0.775,140.17
28.300,0.632,140.44
28.317,0.516,140.70
28.333,0.350,140.97
28.350,0.152,141.24
28.367,-0.012,141.50
28.383,-0.084,141.77
28.400,-0.066,142.04
28.417,-0.068,142.31
28.433,-0.103,142.57
28.450,-0.149,142.84
28.467,-0.138,143.11
28.483,-0.112,143.38
28.500,-0.142,143.64
28.517,-0.258,143.91
28.533,-0.351,144.18
28.550,-0.340,144.45
28.567,-0.241,144.72
28.583,-0.174,144.99
28.600,-0.147,145.26
28.617,-0.136,145.53
28.633,-0.181,145.80
28.650,-0.303,146.07
28.667,-0.474,146.34
28.683,-0.542,146.61
28.700,-0.387,146.88
28.717,-0.133,147.15
28.733,0.006,147.42
28.750,-0.049,147.69
28.767,-0.206,147.96
28.783,-0.312,148.23
28.800,-0.289,148.50
28.817,-0.213,148.77
28.833,-0.200,149.04
28.850,-0.209,149.32
28.867,-0.206,149.59
28.883,-0.172,149.86
28.900,-0.142,150.13
28.917,-0.219,150.40
28.933,-0.287,150.68
28.950,-0.240,150.95
28.967,-0.125,151.22
28.983,-0.096,151.50
29.000,-0.188,151.77
29.017,-0.244,152.04
29.033,-0.288,152.32
29.050,-0.251,152.59
29.067,-0.186,152.86
29.083,-0.275,153.14
29.100,-0.382,153.41
29.117,-0.375,153.69
29.133,-0.296,153.96
29.150,-0.249,154.23
29.167,-0.237,154.51
29.183,-0.186,154.78
29.200,-0.183,155.06
29.217,-0.190,155.33
29.233,-0.168,155.61
29.250,-0.131,155.88
29.267,-0.019,156.16
29.283,0.074,156.44
29.300,0.127,156.71
29.317,0.137,156.99
29.333,0.100,157.26
29.350,0.043,157.54
29.367,0.017,157.82
29.383,0.029,158.09
29.400,0.087,158.37
29.417,0.172,158.65
29.433,0.211,158.93
29.450,0.111,159.20
29.467,-0.043,159.48
29.483,-0.102,159.76
29.500,-0.041,160.04
29.517,0.093,160.31
29.533,0.207,160.59
29.550,0.202,160.87
29.567,0.062,161.15
29.583,-0.064,161.43
29.600,-0.137,161.71
29.617,-0.064,161.98
29.633,0.039,162.26
29.650,0.046,162.54
29.667,0.016,162.82
29.683,0.039,163.10
29.700,0.111,163.38
29.717,0.181,163.66
29.733,0.165,163.94
29.750,0.077,164.22
29.767,-0.091,164.50
29.783,-0.122,164.78
29.800,-0.107,165.06
29.817,-0.073,165.34
29.833,-0.024,165.62
29.850,0.042,165.90
29.867,0.090,166.18
29.883,0.232,166.47
29.900,0.305,166.75
29.917,0.310,167.03
29.933,0.388,167.31
29.950,0.610,167.59
29.967,0.893,167.87
29.983,1.093,168.16
30.000,0.894,168.44
30.017,0.569,168.72
30.033,0.374,169.00
30.050,0.401,169.29
30.067,0.307,169.57
30.083,0.266,169.85
30.100,0.380,170.13
30.117,0.516,170.42
30.133,0.638,170.70
30.150,0.637,170.98
30.167,0.319,171.27
30.183,0.090,171.55
30.200,0.109,171.84
30.217,0.127,172.12
30.233,-0.017,172.40
30.250,-0.117,172.69
30.267,-0.155,172.97
30.283,-0.236,173.26
30.300,-0.225,173.54
30.317,-0.172,173.83
30.333,-0.140,174.11
30.350,-0.113,174.40
30.367,-0.060,174.68
30.383,-0.063,174.97
30.400,-0.045,175.25
30.417,0.178,175.54
30.433,0.564,175.82
30.450,0.826,176.11
30.467,0.951,176.40
30.483,0.775,176.68
30.500,0.482,176.97
30.517,0.230,177.25
30.533,0.172,177.54
30.550,0.177,177.83
30.567,0.099,178.11
30.583,0.018,178.40
30.600,-0.157,178.69
30.617,-0.320,178.98
30.633,-0.211,179.26
30.650,-0.004,179.55
30.667,0.108,179.84
30.683,0.164,180.13
30.700,0.155,180.41
30.717,0.134,180.70
30.733,0.169,180.99
30.750,0.277,181.28
30.767,0.219,181.57
30.783,0.079,181.85
30.800,0.004,182.14
30.817,0.053,182.43
30.833,0.202,182.72
30.850,0.303,183.01
30.867,0.348,183.30
30.883,0.269,183.59
30.900,0.215,183.88
30.917,0.152,184.17
30.933,0.096,184.46
30.950,-0.015,184.75
30.967,-0.142,185.04
30.983,-0.136,185.33
31.000,-0.075,185.62
31.017,-0.089,185.91
31.033,-0.074,186.20
31.050,-0.106,186.49
31.067,-0.030,186.78
31.083,-0.075,187.07
31.100,-0.092,187.36
31.117,-0.189,187.65
31.133,-0.195,187.94
31.150,-0.156,188.23
31.167,-0.077,188.53
31.183,-0.006,188.82
31.200,-0.061,189.11
31.217,-0.198,189.40
31.233,-0.272,189.69
31.250,-0.280,189.98
31.267,-0.160,190.28
31.283,-0.067,190.57
31.300,-0.052,190.86
31.317,-0.123,191.15
31.333,-0.276,191.45
31.350,-0.288,191.74
31.367,-0.216,192.03
31.383,-0.183,192.32
31.400,-0.103,192.62
31.417,-0.022,192.91
31.433,-0.050,193.20
31.450,0.006,193.50
31.467,-0.138,193.79
31.483,-0.122,194.08
31.500,0.197,194.38
31.517,0.758,194.67
31.533,1.037,194.97
31.550,0.812,195.26
31.567,0.215,195.55
31.583,-0.249,195.85
31.600,-0.281,196.14
31.617,0.137,196.44
31.633,0.267,196.73
31.650,0.172,197.03
31.667,-0.045,197.32
31.683,-0.228,197.62
31.700,-0.237,197.91
31.717,-0.112,198.21
31.733,0.004,198.50
31.750,0.033,198.80
31.767,-0.047,199.09
31.783,-0.114,199.39
31.800,-0.147,199.69
31.817,-0.077,199.98
31.833,0.012,200.28
31.850,0.048,200.57
31.867,0.011,200.87
31.883,-0.123,201.17
31.900,-0.123,201.46
31.917,-0.110,201.76
31.933,-0.020,202.06
31.950,0.023,202.35
31.967,-0.026,202.65
31.983,-0.047,202.95
32.000,-0.015,203.24
32.017,0.058,203.54
32.033,0.081,203.84
32.050,-0.019,204.14
32.067,-0.112,204.43
32.083,-0.137,204.73
32.100,-0.009,205.03
32.117,0.097,205.33
32.133,0.144,205.63
32.150,0.159,205.92
32.167,0.118,206.22
32.183,0.042,206.52
32.200,0.005,206.82
32.217,-0.027,207.12
32.233,-0.117,207.42
32.250,-0.156,207.71
32.267,-0.169,208.01
32.283,-0.217,208.31
32.300,-0.222,208.61
32.317,-0.181,208.91
32.333,-0.192,209.21
32.350,-0.194,209.51
32.367,-0.064,209.81
32.383,0.044,210.11
32.400,0.033,210.41
32.417,-0.013,210.71
32.433,-0.050,211.01
32.450,-0.098,211.31
32.467,-0.098,211.61
32.483,-0.033,211.91
32.500,-0.095,212.21
32.517,-0.166,212.51
32.533,-0.166,212.81
32.550,-0.110,213.11
32.567,-0.060,213.41
32.583,-0.012,213.71
32.600,0.068,214.01
32.617,0.064,214.31
32.633,-0.108,214.61
32.650,-0.256,214.91
32.667,-0.269,215.22
32.683,-0.128,215.52
32.700,0.007,215.82
32.717,0.018,216.12
32.733,-0.121,216.42
32.750,-0.275,216.72
32.767,-0.277,217.03
32.783,-0.215,217.33
32.800,-0.231,217.63
32.817,-0.240,217.93
32.833,-0.070,218.23
32.850,0.195,218.54
32.867,0.418,218.84
32.883,0.529,219.14
32.900,0.498,219.44
32.917,0.341,219.75
32.933,0.193,220.05
32.950,0.073,220.35
32.967,0.035,220.66
32.983,-0.015,220.96
33.000,-0.045,221.26
33.017,-0.125,221.57
33.033,-0.217,221.87
33.050,-0.179,222.17
33.067,-0.085,222.48
33.083,-0.040,222.78
33.100,-0.058,223.08
33.117,-0.146,223.39
33.133,-0.216,223.69
33.150,-0.282,223.99
33.167,-0.261,224.30
33.183,-0.203,224.60
33.200,-0.164,224.91
33.217,-0.112,225.21
33.233,-0.082,225.52
33.250,-0.054,225.82
33.267,-0.024,226.13
33.283,-0.006,226.43
33.300,-0.017,226.74
33.317,-0.088,227.04
33.333,-0.126,227.35
33.350,-0.038,227.65
33.367,0.047,227.96
33.383,0.065,228.26
33.400,0.036,228.57
33.417,-0.065,228.87
33.433,-0.170,229.18
33.450,-0.207,229.48
33.467,-0.192,229.79
33.483,-0.212,230.09
33.500,-0.300,230.40
33.517,-0.400,230.71
33.533,-0.489,231.01
33.550,-0.472,231.32
33.567,-0.342,231.62
33.583,-0.251,231.93
33.600,-0.191,232.24
33.617,-0.167,232.54
33.633,-0.174,232.85
33.650,-0.167,233.16
33.667,-0.171,233.46
33.683,-0.159,233.77
33.700,-0.116,234.08
33.717,-0.064,234.38
33.733,-0.037,234.69
33.750,-0.066,235.00
33.767,-0.118,235.31
33.783,-0.163,235.61
33.800,-0.223,235.92
33.817,-0.298,236.23
33.833,-0.361,236.54
33.850,-0.315,236.84
33.867,-0.258,237.15
33.883,-0.253,237.46
33.900,-0.262,237.77
33.917,-0.281,238.07
33.933,-0.287,238.38
33.950,-0.235,238.69
33.967,-0.161,239.00
33.983,-0.124,239.31
34.000,-0.195,239.62
34.017,-0.244,239.92
34.033,-0.215,240.23
34.050,-0.131,240.54
34.067,-0.061,240.85
34.083,-0.064,241.16
34.100,-0.090,241.47
34.117,-0.103,241.78
34.133,-0.022,242.09
34.150,0.216,242.40
34.167,0.412,242.70
34.183,0.497,243.01
34.200,0.444,243.32
34.217,0.247,243.63
34.233,0.047,243.94
34.250,-0.066,244.25
34.267,-0.051,244.56
34.283,0.037,244.87
34.300,0.166,245.18
34.317,0.390,245.49
34.333,0.759,245.80
34.350,1.100,246.11
34.367,1.311,246.42
34.383,1.414,246.73
34.400,1.334,247.04
34.417,1.090,247.35
34.433,0.728,247.66
34.450,0.461,247.97
34.467,0.247,248.28
34.483,0.096,248.59
34.500,0.159,248.90
34.517,0.552,249.21
34.533,1.163,249.53
34.550,1.588,249.84
34.567,1.454,250.15
34.583,0.845,250.46
34.600,0.149,250.77
34.617,-0.241,251.08
34.633,-0.271,251.39
34.650,-0.134,251.70
34.667,-0.124,252.01
34.683,-0.137,252.33
34.700,-0.116,252.64
34.717,-0.066,252.95
34.733,-0.058,253.26
34.750,-0.089,253.57
34.767,-0.093,253.88
34.783,-0.172,254.20
34.800,-0.186,254.51
34.817,-0.125,254.82
34.833,-0.177,255.13
34.850,-0.337,255.44
34.867,-0.399,255.76
34.883,-0.373,256.07
34.900,-0.301,256.38
34.917,-0.184,256.69
34.933,-0.103,257.01
34.950,-0.010,257.32
34.967,0.084,257.63
34.983,0.060,257.94
35.000,0.001,258.26
35.017,-0.047,258.57
35.033,-0.096,258.88
35.050,-0.188,259.20
35.067,-0.239,259.51
35.083,-0.279,259.82
35.100,-0.324,260.13
35.117,-0.265,260.45
35.133,-0.270,260.76
35.150,-0.410,261.07
35.167,-0.493,261.39
35.183,-0.443,261.70
35.200,-0.413,262.02
35.217,-0.383,262.33
35.233,-0.355,262.64
35.250,-0.362,262.96
35.267,-0.287,263.27
35.283,-0.199,263.58
35.300,-0.154,263.90
35.317,-0.215,264.21
35.333,-0.286,264.53
35.350,-0.218,264.84
35.367,-0.131,265.15
35.383,-0.103,265.47
35.400,-0.125,265.78
35.417,-0.121,266.10
35.433,-0.044,266.41
35.450,0.052,266.73
35.467,0.036,267.04
35.483,-0.113,267.36
35.500,-0.268,267.67
35.517,-0.274,267.98
35.533,-0.310,268.30
35.550,-0.342,268.61
35.567,-0.366,268.93
35.583,-0.379,269.24
35.600,-0.310,269.56
35.617,-0.160,269.87
35.633,-0.085,270.19
35.650,-0.068,270.50
35.667,-0.110,270.82
35.683,-0.197,271.14
35.700,-0.153,271.45
35.717,0.076,271.77
35.733,0.263,272.08
35.750,0.187,272.40
35.767,0.091,272.71
35.783,-0.068,273.03
35.800,-0.171,273.34
35.817,-0.120,273.66
35.833,-0.032,273.98
35.850,0.057,274.29
35.867,0.204,274.61
35.883,0.196,274.92
35.900,0.179,275.24
35.917,-0.037,275.56
35.933,-0.070,275.87
35.950,0.061,276.19
35.967,0.317,276.50
35.983,0.595,276.82
36.000,0.746,277.14
36.017,0.733,277.45
36.033,0.537,277.77
36.050,0.551,278.09
36.067,0.891,278.40
36.083,1.108,278.72
36.100,1.100,279.04
36.117,0.762,279.35
36.133,0.394,279.67
36.150,0.137,279.99
36.167,0.127,280.30
36.183,0.022,280.62
36.200,-0.113,280.94
36.217,-0.170,281.25
36.233,-0.113,281.57
36.250,-0.100,281.89
36.267,-0.136,282.21
36.283,-0.230,282.52
36.300,-0.102,282.84
36.317,0.027,283.16
36.333,0.149,283.48
36.350,0.118,283.79
36.367,-0.067,284.11
36.383,-0.019,284.43
36.400,0.344,284.75
36.417,0.870,285.06
36.433,1.119,285.38
36.450,0.972,285.70
36.467,0.578,286.02
36.483,0.182,286.34
36.500,0.039,286.65
36.517,0.114,286.97
36.533,0.070,287.29
36.550,0.146,287.61
36.567,0.186,287.93
36.583,0.282,288.24
36.600,0.290,288.56
36.617,0.196,288.88
36.633,0.043,289.20
36.650,-0.047,289.52
36.667,-0.081,289.84
36.683,-0.048,290.15
36.700,-0.048,290.47
36.717,-0.045,290.79
36.733,-0.118,291.11
36.750,-0.188,291.43
36.767,-0.240,291.75
36.783,-0.207,292.07
36.800,-0.117,292.38
36.817,-0.047,292.70
36.833,0.038,293.02
36.850,0.070,293.34
36.867,0.021,293.66
36.883,-0.012,293.98
36.900,-0.094,294.30
36.917,-0.089,294.62
36.933,-0.039,294.94
36.950,0.032,295.26
36.967,0.051,295.57
36.983,0.001,295.89
37.000,-0.073,296.21
37.017,-0.148,296.53
37.033,-0.103,296.85
37.050,-0.028,297.17
37.067,-0.105,297.49
37.083,-0.228,297.81
37.100,-0.347,298.13
37.117,-0.473,298.45
37.133,-0.421,298.77
37.150,-0.340,299.09
37.167,-0.297,299.41
37.183,-0.239,299.73
37.200,-0.131,300.05
37.217,-0.070,300.37
37.233,-0.154,300.69
37.250,-0.264,301.01
37.267,-0.292,301.33
37.283,-0.306,301.65
37.300,-0.213,301.97
37.317,-0.127,302.29
37.333,-0.059,302.61
37.350,-0.004,302.93
37.367,-0.012,303.25
37.383,-0.096,303.57
37.400,-0.309,303.89
37.417,-0.464,304.21
37.433,-0.448,304.53
37.450,-0.352,304.85
37.467,-0.212,305.17
37.483,-0.157,305.49
37.500,-0.162,305.81
37.517,-0.145,306.13
37.533,-0.117,306.45
37.550,-0.021,306.77
37.567,0.063,307.10
37.583,0.075,307.42
37.600,0.005,307.74
37.617,-0.083,308.06
37.633,-0.152,308.38
37.650,-0.237,308.70
37.667,-0.185,309.02
37.683,0.109,309.34
37.700,0.564,309.66
37.717,0.887,309.98
37.733,0.875,310.30
37.750,0.553,310.63
37.767,0.101,310.95
37.783,-0.192,311.27
37.800,-0.288,311.59
37.817,-0.321,311.91
37.833,-0.328,312.23
37.850,-0.135,312.55
37.867,0.297,312.87
37.883,0.638,313.20
37.900,0.659,313.52
37.917,0.403,313.84
37.933,0.016,314.16
37.950,-0.240,314.48
37.967,-0.257,314.80
37.983,-0.132,315.12
38.000,-0.087,315.45
38.017,-0.144,315.77
38.033,-0.196,316.09
38.050,-0.261,316.41
38.067,-0.299,316.73
38.083,-0.195,317.05
38.100,-0.042,317.38
38.117,0.076,317.70
38.133,0.098,318.02
38.150,0.014,318.34
38.167,-0.111,318.66
38.183,-0.174,318.99
38.200,-0.096,319.31
38.217,0.019,319.63
38.233,0.091,319.95
38.250,0.065,320.27
38.267,-0.042,320.60
38.283,-0.076,320.92
38.300,-0.083,321.24
38.317,-0.096,321.56
38.333,-0.037,321.89
38.350,0.047,322.21
38.367,0.000,322.53
38.383,-0.185,322.85
38.400,-0.256,323.18
38.417,-0.162,323.50
38.433,0.117,323.82
38.450,0.412,324.14
38.467,0.426,324.46
38.483,0.196,324.79
38.500,-0.114,325.11
38.517,-0.181,325.43
38.533,0.015,325.76
38.550,0.276,326.08
38.567,0.448,326.40
38.583,0.348,326.72
38.600,0.035,327.05
38.617,-0.298,327.37
38.633,-0.456,327.69
38.650,-0.378,328.01
38.667,-0.243,328.34
38.683,-0.105,328.66
38.700,-0.069,328.98
38.717,-0.138,329.31
38.733,-0.285,329.63
38.750,-0.409,329.95
38.767,-0.371,330.27
38.783,-0.212,330.60
38.800,-0.060,330.92
38.817,0.017,331.24
38.833,0.017,331.57
38.850,-0.038,331.89
38.867,-0.084,332.21
38.883,-0.101,332.54
38.900,-0.161,332.86
38.917,-0.190,333.18
38.933,-0.152,333.51
38.950,-0.132,333.83
38.967,-0.119,334.15
38.983,-0.017,334.48
39.000,0.136,334.80
39.017,0.255,335.12
39.033,0.285,335.45
39.050,0.146,335.77
39.067,-0.046,336.09
39.083,-0.129,336.42
39.100,-0.150,336.74
39.117,-0.112,337.06
39.133,-0.104,337.39
39.150,-0.123,337.71
39.167,-0.116,338.03
39.183,-0.129,338.36
39.200,-0.238,338.68
39.217,-0.233,339.00
39.233,-0.097,339.33
39.250,0.014,339.65
39.267,0.039,339.98
39.283,0.033,340.30
39.300,0.036,340.62
39.317,0.088,340.95
39.333,0.176,341.27
39.350,0.274,341.59
39.367,0.321,341.92
39.383,0.501,342.24
39.400,0.672,342.57
39.417,0.645,342.89
39.433,0.508,343.21
39.450,0.241,343.54
39.467,0.016,343.86
39.483,-0.041,344.19
39.500,-0.065,344.51
39.517,-0.071,344.83
39.533,-0.076,345.16
39.550,-0.168,345.48
39.567,-0.208,345.81
39.583,-0.133,346.13
39.600,0.069,346.45
39.617,0.152,346.78
39.633,0.104,347.10
39.650,0.102,347.43
39.667,0.044,347.75
39.683,0.106,348.08
39.700,0.188,348.40
39.717,0.154,348.72
39.733,0.025,349.05
39.750,-0.075,349.37
39.767,-0.111,349.70
39.783,-0.108,350.02
39.800,-0.116,350.34
39.817,-0.112,350.67
39.833,-0.161,350.99
39.850,-0.180,351.32
39.867,-0.239,351.64
39.883,-0.274,351.97
39.900,-0.258,352.29
39.917,-0.204,352.62
39.933,-0.034,352.94
39.950,0.159,353.26
39.967,0.171,353.59
39.983,0.055,353.91
40.000,-0.034,354.24
40.017,-0.009,354.56
40.033,0.064,354.89
40.050,0.097,355.21
40.067,0.088,355.54
40.083,-0.021,355.86
40.100,-0.106,356.19
40.117,-0.106,356.51
40.133,-0.139,356.83
40.150,-0.197,357.16
40.167,-0.247,357.48
40.183,-0.222,357.81
40.200,-0.248,358.13
40.217,-0.279,358.46
40.233,-0.172,358.78
40.250,0.072,359.11
40.267,0.284,359.43
40.283,0.403,359.76
40.300,0.302,360.08
40.317,0.087,360.41
40.333,-0.023,360.73
40.350,-0.003,361.06
40.367,-0.021,361.38
40.383,-0.060,361.71
40.400,-0.111,362.03
40.417,-0.103,362.36
40.433,-0.144,362.68
40.450,-0.053,363.01
40.467,0.193,363.33
40.483,0.359,363.66
40.500,0.479,363.98
40.517,0.388,364.31
40.533,0.251,364.63
40.550,0.118,364.96
40.567,0.087,365.28
40.583,0.046,365.61
40.600,-0.117,365.93
40.617,-0.224,366.26
40.633,-0.265,366.58
40.650,-0.289,366.91
40.667,-0.129,367.23
40.683,0.010,367.56
40.700,0.142,367.88
40.717,0.134,368.21
40.733,0.158,368.53
40.750,0.120,368.86
40.767,0.025,369.18
40.783,-0.033,369.51
40.800,-0.104,369.83
40.817,-0.111,370.16
40.833,-0.044,370.48
40.850,0.030,370.81
40.867,0.012,371.13
40.883,0.005,371.46
40.900,0.024,371.78
40.917,-0.004,372.11
40.933,-0.116,372.43
40.950,-0.215,372.76
40.967,-0.248,373.08
40.983,-0.270,373.41
41.000,-0.183,373.73
41.017,-0.117,374.06
41.033,-0.181,374.38
41.050,-0.066,374.71
41.067,-0.129,375.03
41.083,0.032,375.36
41.100,0.344,375.68
41.117,0.483,376.01
41.133,0.561,376.33
41.150,0.503,376.66
41.167,0.507,376.99
41.183,0.453,377.31
41.200,0.403,377.64
41.217,0.401,377.96
41.233,0.130,378.29
41.250,0.165,378.61
41.267,0.251,378.94
41.283,0.326,379.26
41.300,0.308,379.59
41.317,0.164,379.91
41.333,0.000,380.24
41.350,-0.107,380.56
41.367,-0.086,380.89
41.383,-0.009,381.21
41.400,-0.025,381.54
41.417,-0.065,381.87
41.433,-0.155,382.19
41.450,-0.160,382.52
41.467,-0.203,382.84
41.483,-0.173,383.17
41.500,-0.099,383.49
41.517,-0.057,383.82
41.533,-0.076,384.14
41.550,-0.085,384.47
41.567,-0.082,384.79
41.583,-0.113,385.12
41.600,-0.079,385.44
41.617,-0.064,385.77
41.633,-0.031,386.10
41.650,-0.075,386.42
41.667,-0.168,386.75
