VERSION=1.3
ExportFileName=PM PP 16_2025-05-14_13-24-16_labchip_PURE_Data_E6
SampleLabel=E6
SampleName=PM PP 16
SampleComment=
SampleAreaConcRatio=0.014745
SampleLowerMarkerTime=12.15
SampleUpperMarkerTime=-1.00
SamplePeakTimes=12.15,15.13,15.50,17.18,17.48,17.73,18.15,18.28,18.40,18.60,18.88,19.03,19.18,19.57,19.90,20.48,20.85,21.23,21.45,21.70,22.08,22.65,23.02,23.63,25.20,25.77
SamplePeakSizes=1.384,7.690,9.017,16.985,18.745,20.292,23.035,23.956,24.780,26.229,28.364,29.533,30.728,33.905,36.807,42.199,45.788,49.703,51.989,54.690,58.964,65.568,70.018,77.805,99.198,107.464
SamplePeakQuantities=,,,8.5881,2.6474,4.9422,60.8963,53.6081,45.8732,17.3687,11.7600,5.1365,6.8918,31.7521,175.2330,166.1679,358.8479,73.7627,32.9699,15.1961,148.5816,105.5694,14.1989,11.5977,62.8014,38.3300
PlateFileName=2025-05-14_13-24-16_labchip_PURE
PlateAssayName=HT Protein Express 200
PlateBarCode=N/A
WellAquisitionTime=5/14/2025 2:10:46 PM 
PlateDataFrequency=60
PlateDataStartTime=11.00
PlateDataEndTime=42.00
PlateConcUnits=ng/ul
PlateSizeUnits=kDa
PlateLadderSizes=1.40,15.90,20.40,28.90,48.40,68.40,119.20
ChipID=H296P-0563N-03
Operator=ACJS
DATA
Time,Value,Size
0.000,36.159,0.00
0.017,35.036,0.00
0.033,34.107,0.00
0.050,32.818,0.00
0.067,31.702,0.00
0.083,30.825,0.00
0.100,30.275,0.00
0.117,29.861,0.00
0.133,29.432,0.00
0.150,28.994,0.00
0.167,28.495,0.00
0.183,27.904,0.00
0.200,27.236,0.00
0.217,26.488,0.00
0.233,25.692,0.00
0.250,24.872,0.00
0.267,24.027,0.00
0.283,23.180,0.00
0.300,22.325,0.00
0.317,21.504,0.00
0.333,20.736,0.00
0.350,19.959,0.00
0.367,19.207,0.00
0.383,18.491,0.00
0.400,17.798,0.00
0.417,17.125,0.00
0.433,16.422,0.00
0.450,15.778,0.00
0.467,15.184,0.00
0.483,14.635,0.00
0.500,14.185,0.00
0.517,13.676,0.00
0.533,13.194,0.00
0.550,12.777,0.00
0.567,12.335,0.00
0.583,11.951,0.00
0.600,11.531,0.00
0.617,11.213,0.00
0.633,10.854,0.00
0.650,10.475,0.00
0.667,10.177,0.00
0.683,9.822,0.00
0.700,9.510,0.00
0.717,9.229,0.00
0.733,8.912,0.00
0.750,8.644,0.00
0.767,8.418,0.00
0.783,8.222,0.00
0.800,8.046,0.00
0.817,7.843,0.00
0.833,7.608,0.00
0.850,7.365,0.00
0.867,7.138,0.00
0.883,6.903,0.00
0.900,6.680,0.00
0.917,6.502,0.00
0.933,6.369,0.00
0.950,6.223,0.00
0.967,6.065,0.00
0.983,5.887,0.00
1.000,5.663,0.00
1.017,5.456,0.00
1.033,5.307,0.00
1.050,5.178,0.00
1.067,5.042,0.00
1.083,4.932,0.00
1.100,4.860,0.00
1.117,4.778,0.00
1.133,4.631,0.00
1.150,4.410,0.00
1.167,4.196,0.00
1.183,4.063,0.00
1.200,3.998,0.00
1.217,3.923,0.00
1.233,3.833,0.00
1.250,3.763,0.00
1.267,3.701,0.00
1.283,3.673,0.00
1.300,3.655,0.00
1.317,3.527,0.00
1.333,3.368,0.00
1.350,3.220,0.00
1.367,3.164,0.00
1.383,3.059,0.00
1.400,2.993,0.00
1.417,2.932,0.00
1.433,2.847,0.00
1.450,2.763,0.00
1.467,2.654,0.00
1.483,2.520,0.00
1.500,2.353,0.00
1.517,2.244,0.00
1.533,2.176,0.00
1.550,2.101,0.00
1.567,1.989,0.00
1.583,1.862,0.00
1.600,1.775,0.00
1.617,1.685,0.00
1.633,1.564,0.00
1.650,1.461,0.00
1.667,1.375,0.00
1.683,1.311,0.00
1.700,1.235,0.00
1.717,1.129,0.00
1.733,0.997,0.00
1.750,0.855,0.00
1.767,0.759,0.00
1.783,0.681,0.00
1.800,0.571,0.00
1.817,0.476,0.00
1.833,0.399,0.00
1.850,0.326,0.00
1.867,0.289,0.00
1.883,0.252,0.00
1.900,0.152,0.00
1.917,0.015,0.00
1.933,-0.114,0.00
1.950,-0.165,0.00
1.967,-0.197,0.00
1.983,-0.255,0.00
2.000,-0.342,0.00
2.017,-0.389,0.00
2.033,-0.425,0.00
2.050,-0.466,0.00
2.067,-0.534,0.00
2.083,-0.691,0.00
2.100,-0.864,0.00
2.117,-0.866,0.00
2.133,-0.889,0.00
2.150,-0.961,0.00
2.167,-1.028,0.00
2.183,-1.063,0.00
2.200,-1.141,0.00
2.217,-1.186,0.00
2.233,-1.185,0.00
2.250,-1.224,0.00
2.267,-1.303,0.00
2.283,-1.370,0.00
2.300,-1.475,0.00
2.317,-1.567,0.00
2.333,-1.636,0.00
2.350,-1.659,0.00
2.367,-1.702,0.00
2.383,-1.771,0.00
2.400,-1.879,0.00
2.417,-1.973,0.00
2.433,-2.011,0.00
2.450,-2.000,0.00
2.467,-1.991,0.00
2.483,-2.063,0.00
2.500,-2.200,0.00
2.517,-2.316,0.00
2.533,-2.365,0.00
2.550,-2.356,0.00
2.567,-2.346,0.00
2.583,-2.423,0.00
2.600,-2.517,0.00
2.617,-2.588,0.00
2.633,-2.627,0.00
2.650,-2.681,0.00
2.667,-2.702,0.00
2.683,-2.751,0.00
2.700,-2.823,0.00
2.717,-2.872,0.00
2.733,-2.922,0.00
2.750,-2.972,0.00
2.767,-3.037,0.00
2.783,-3.098,0.00
2.800,-3.149,0.00
2.817,-3.216,0.00
2.833,-3.275,0.00
2.850,-3.373,0.00
2.867,-3.476,0.00
2.883,-3.535,0.00
2.900,-3.623,0.00
2.917,-3.644,0.00
2.933,-3.640,0.00
2.950,-3.702,0.00
2.967,-3.759,0.00
2.983,-3.843,0.00
3.000,-3.922,0.00
3.017,-3.981,0.00
3.033,-4.004,0.00
3.050,-4.008,0.00
3.067,-4.060,0.00
3.083,-4.164,0.00
3.100,-4.284,0.00
3.117,-4.403,0.00
3.133,-4.467,0.00
3.150,-4.511,0.00
3.167,-4.527,0.00
3.183,-4.523,0.00
3.200,-4.550,0.00
3.217,-4.663,0.00
3.233,-4.970,0.00
3.250,-5.483,0.00
3.267,-6.099,0.00
3.283,-6.691,0.00
3.300,-7.203,0.00
3.317,-7.646,0.00
3.333,-8.049,0.00
3.350,-8.369,0.00
3.367,-8.675,0.00
3.383,-8.901,0.00
3.400,-9.149,0.00
3.417,-9.371,0.00
3.433,-9.580,0.00
3.450,-9.773,0.00
3.467,-9.920,0.00
3.483,-9.991,0.00
3.500,-10.023,0.00
3.517,-10.037,0.00
3.533,-10.071,0.00
3.550,-10.081,0.00
3.567,-10.214,0.00
3.583,-10.303,0.00
3.600,-10.414,0.00
3.617,-10.507,0.00
3.633,-10.560,0.00
3.650,-10.579,0.00
3.667,-10.582,0.00
3.683,-10.608,0.00
3.700,-10.594,0.00
3.717,-10.623,0.00
3.733,-10.689,0.00
3.750,-10.704,0.00
3.767,-10.689,0.00
3.783,-10.675,0.00
3.800,-10.688,0.00
3.817,-10.743,0.00
3.833,-10.804,0.00
3.850,-10.825,0.00
3.867,-10.802,0.00
3.883,-10.804,0.00
3.900,-10.839,0.00
3.917,-10.854,0.00
3.933,-10.867,0.00
3.950,-10.897,0.00
3.967,-10.927,0.00
3.983,-10.977,0.00
4.000,-11.078,0.00
4.017,-11.193,0.00
4.033,-11.310,0.00
4.050,-11.436,0.00
4.067,-11.530,0.00
4.083,-11.554,0.00
4.100,-11.567,0.00
4.117,-11.602,0.00
4.133,-11.632,0.00
4.150,-11.703,0.00
4.167,-11.822,0.00
4.183,-11.894,0.00
4.200,-11.962,0.00
4.217,-12.034,0.00
4.233,-12.058,0.00
4.250,-12.053,0.00
4.267,-12.063,0.00
4.283,-12.039,0.00
4.300,-12.024,0.00
4.317,-12.023,0.00
4.333,-12.007,0.00
4.350,-11.977,0.00
4.367,-12.008,0.00
4.383,-12.068,0.00
4.400,-12.150,0.00
4.417,-12.215,0.00
4.433,-12.184,0.00
4.450,-12.136,0.00
4.467,-12.122,0.00
4.483,-12.161,0.00
4.500,-12.240,0.00
4.517,-12.275,0.00
4.533,-12.266,0.00
4.550,-12.209,0.00
4.567,-12.148,0.00
4.583,-12.076,0.00
4.600,-11.962,0.00
4.617,-11.838,0.00
4.633,-11.703,0.00
4.650,-11.552,0.00
4.667,-11.412,0.00
4.683,-11.283,0.00
4.700,-11.164,0.00
4.717,-11.068,0.00
4.733,-10.942,0.00
4.750,-10.731,0.00
4.767,-10.462,0.00
4.783,-10.169,0.00
4.800,-9.910,0.00
4.817,-9.667,0.00
4.833,-9.404,0.00
4.850,-9.133,0.00
4.867,-8.892,0.00
4.883,-8.677,0.00
4.900,-8.546,0.00
4.917,-8.334,0.00
4.933,-8.146,0.00
4.950,-7.807,0.00
4.967,-7.502,0.00
4.983,-7.286,0.00
5.000,-7.070,0.00
5.017,-6.937,0.00
5.033,-6.826,0.00
5.050,-6.660,0.00
5.067,-6.470,0.00
5.083,-6.311,0.00
5.100,-6.249,0.00
5.117,-6.183,0.00
5.133,-6.168,0.00
5.150,-6.130,0.00
5.167,-6.019,0.00
5.183,-5.956,0.00
5.200,-5.894,0.00
5.217,-5.849,0.00
5.233,-5.812,0.00
5.250,-5.793,0.00
5.267,-5.757,0.00
5.283,-5.741,0.00
5.300,-5.760,0.00
5.317,-5.783,0.00
5.333,-5.844,0.00
5.350,-5.903,0.00
5.367,-5.876,0.00
5.383,-5.881,0.00
5.400,-6.061,0.00
5.417,-6.372,0.00
5.433,-6.689,0.00
5.450,-6.872,0.00
5.467,-6.850,0.00
5.483,-6.697,0.00
5.500,-6.602,0.00
5.517,-6.596,0.00
5.533,-6.465,0.00
5.550,-6.288,0.00
5.567,-6.149,0.00
5.583,-6.082,0.00
5.600,-6.127,0.00
5.617,-6.178,0.00
5.633,-6.170,0.00
5.650,-6.211,0.00
5.667,-6.300,0.00
5.683,-6.390,0.00
5.700,-6.350,0.00
5.717,-6.314,0.00
5.733,-6.234,0.00
5.750,-6.181,0.00
5.767,-6.188,0.00
5.783,-6.138,0.00
5.800,-6.080,0.00
5.817,-6.105,0.00
5.833,-6.145,0.00
5.850,-6.166,0.00
5.867,-6.217,0.00
5.883,-6.290,0.00
5.900,-6.291,0.00
5.917,-6.256,0.00
5.933,-6.230,0.00
5.950,-6.246,0.00
5.967,-6.353,0.00
5.983,-6.447,0.00
6.000,-6.469,0.00
6.017,-6.418,0.00
6.033,-6.387,0.00
6.050,-6.432,0.00
6.067,-6.511,0.00
6.083,-6.571,0.00
6.100,-6.570,0.00
6.117,-6.568,0.00
6.133,-6.646,0.00
6.150,-6.739,0.00
6.167,-6.832,0.00
6.183,-6.924,0.00
6.200,-6.950,0.00
6.217,-7.011,0.00
6.233,-7.091,0.00
6.250,-7.186,0.00
6.267,-7.291,0.00
6.283,-7.344,0.00
6.300,-7.399,0.00
6.317,-7.402,0.00
6.333,-7.501,0.00
6.350,-7.628,0.00
6.367,-7.715,0.00
6.383,-7.721,0.00
6.400,-7.653,0.00
6.417,-7.580,0.00
6.433,-7.659,0.00
6.450,-7.739,0.00
6.467,-8.603,0.00
6.483,-13.326,0.00
6.500,10.927,0.00
6.517,2.918,0.00
6.533,-38.794,0.00
6.550,-28.606,0.00
6.567,153.338,0.00
6.583,504.369,0.00
6.600,1085.727,0.00
6.617,1806.388,0.00
6.633,2457.442,0.00
6.650,2881.462,0.00
6.667,3067.441,0.00
6.683,3062.978,0.00
6.700,2983.811,0.00
6.717,2945.599,0.00
6.733,2964.563,0.00
6.750,2954.675,0.00
6.767,2919.345,0.00
6.783,2895.923,0.00
6.800,2878.463,0.00
6.817,2869.684,0.00
6.833,2868.205,0.00
6.850,2870.935,0.00
6.867,2874.564,0.00
6.883,2877.911,0.00
6.900,2882.082,0.00
6.917,2886.568,0.00
6.933,2890.088,0.00
6.950,2892.916,0.00
6.967,2894.959,0.00
6.983,2895.714,0.00
7.000,2895.950,0.00
7.017,2897.231,0.00
7.033,2898.019,0.00
7.050,2897.907,0.00
7.067,2898.361,0.00
7.083,2899.326,0.00
7.100,2900.760,0.00
7.117,2902.627,0.00
7.133,2902.539,0.00
7.150,2901.141,0.00
7.167,2898.245,0.00
7.183,2897.352,0.00
7.200,2897.475,0.00
7.217,2898.331,0.00
7.233,2898.868,0.00
7.250,2898.325,0.00
7.267,2896.873,0.00
7.283,2892.917,0.00
7.300,2887.020,0.00
7.317,2880.880,0.00
7.333,2874.909,0.00
7.350,2869.103,0.00
7.367,2863.086,0.00
7.383,2857.046,0.00
7.400,2850.918,0.00
7.417,2844.965,0.00
7.433,2839.395,0.00
7.450,2833.020,0.00
7.467,2826.121,0.00
7.483,2819.410,0.00
7.500,2813.138,0.00
7.517,2807.481,0.00
7.533,2802.048,0.00
7.550,2796.475,0.00
7.567,2790.305,0.00
7.583,2783.143,0.00
7.600,2775.845,0.00
7.617,2769.255,0.00
7.633,2763.240,0.00
7.650,2758.189,0.00
7.667,2753.431,0.00
7.683,2748.127,0.00
7.700,2742.297,0.00
7.717,2735.630,0.00
7.733,2729.436,0.00
7.750,2724.452,0.00
7.767,2719.469,0.00
7.783,2714.084,0.00
7.800,2707.415,0.00
7.817,2700.214,0.00
7.833,2693.976,0.00
7.850,2688.614,0.00
7.867,2683.653,0.00
7.883,2678.029,0.00
7.900,2671.739,0.00
7.917,2666.247,0.00
7.933,2660.749,0.00
7.950,2655.548,0.00
7.967,2649.896,0.00
7.983,2644.534,0.00
8.000,2639.560,0.00
8.017,2634.086,0.00
8.033,2628.624,0.00
8.050,2622.645,0.00
8.067,2616.481,0.00
8.083,2610.800,0.00
8.100,2605.757,0.00
8.117,2601.618,0.00
8.133,2597.126,0.00
8.150,2592.029,0.00
8.167,2586.539,0.00
8.183,2580.838,0.00
8.200,2575.562,0.00
8.217,2571.036,0.00
8.233,2566.957,0.00
8.250,2562.467,0.00
8.267,2557.690,0.00
8.283,2553.666,0.00
8.300,2550.001,0.00
8.317,2545.901,0.00
8.333,2541.857,0.00
8.350,2538.636,0.00
8.367,2536.243,0.00
8.383,2534.639,0.00
8.400,2534.199,0.00
8.417,2533.116,0.00
8.433,2530.856,0.00
8.450,2529.014,0.00
8.467,2528.058,0.00
8.483,2528.234,0.00
8.500,2529.033,0.00
8.517,2530.009,0.00
8.533,2529.774,0.00
8.550,2528.002,0.00
8.567,2526.133,0.00
8.583,2525.419,0.00
8.600,2524.645,0.00
8.617,2524.111,0.00
8.633,2523.190,0.00
8.650,2520.797,0.00
8.667,2517.914,0.00
8.683,2514.123,0.00
8.700,2509.579,0.00
8.717,2505.328,0.00
8.733,2501.800,0.00
8.750,2498.629,0.00
8.767,2494.520,0.00
8.783,2490.029,0.00
8.800,2484.684,0.00
8.817,2478.722,0.00
8.833,2474.107,0.00
8.850,2470.775,0.00
8.867,2467.954,0.00
8.883,2464.870,0.00
8.900,2461.163,0.00
8.917,2456.310,0.00
8.933,2450.925,0.00
8.950,2446.425,0.00
8.967,2442.616,0.00
8.983,2438.934,0.00
9.000,2435.117,0.00
9.017,2430.764,0.00
9.033,2426.579,0.00
9.050,2422.473,0.00
9.067,2417.604,0.00
9.083,2413.058,0.00
9.100,2408.889,0.00
9.117,2404.969,0.00
9.133,2400.885,0.00
9.150,2396.802,0.00
9.167,2396.101,0.00
9.183,2389.186,0.00
9.200,2379.623,0.00
9.217,2380.586,0.00
9.233,2399.351,0.00
9.250,2453.948,0.00
9.267,2535.246,0.00
9.283,2615.309,0.00
9.300,2666.716,0.00
9.317,2681.444,0.00
9.333,2679.012,0.00
9.350,2668.462,0.00
9.367,2663.035,0.00
9.383,2663.402,0.00
9.400,2657.924,0.00
9.417,2653.502,0.00
9.433,2649.665,0.00
9.450,2646.429,0.00
9.467,2643.737,0.00
9.483,2641.318,0.00
9.500,2637.892,0.00
9.517,2633.765,0.00
9.533,2630.707,0.00
9.550,2631.766,0.00
9.567,2618.003,0.00
9.583,2602.402,0.00
9.600,2613.344,0.00
9.617,2655.436,0.00
9.633,2701.943,0.00
9.650,2730.708,0.00
9.667,2726.178,0.00
9.683,2687.700,0.00
9.700,2646.687,0.00
9.717,2634.217,0.00
9.733,2652.278,0.00
9.750,2697.900,0.00
9.767,2767.962,0.00
9.783,2833.886,0.00
9.800,2874.532,0.00
9.817,2880.621,0.00
9.833,2858.628,0.00
9.850,2890.463,0.00
9.867,3000.358,0.00
9.883,2945.497,0.00
9.900,2591.921,0.00
9.917,1990.045,0.00
9.933,1317.145,0.00
9.950,782.223,0.00
9.967,491.345,0.00
9.983,366.820,0.00
10.000,227.218,0.00
10.017,97.859,0.00
10.033,75.911,0.00
10.050,35.784,0.00
10.067,7.165,0.00
10.083,-9.742,0.00
10.100,-16.645,0.00
10.117,-16.378,0.00
10.133,-14.694,0.00
10.150,-12.797,0.00
10.167,-10.620,0.00
10.183,-8.806,0.00
10.200,-7.467,0.00
10.217,-6.422,0.00
10.233,-5.437,0.00
10.250,-4.722,0.00
10.267,-4.270,0.00
10.283,-4.037,0.00
10.300,-3.786,0.00
10.317,-3.330,0.00
10.333,-2.698,0.00
10.350,-1.999,0.00
10.367,-1.401,0.00
10.383,-1.169,0.00
10.400,-1.393,0.00
10.417,-1.950,0.00
10.433,-2.321,0.00
10.450,-2.928,0.00
10.467,-3.712,0.00
10.483,-2.449,0.00
10.500,0.919,0.00
10.517,4.258,0.00
10.533,5.450,0.00
10.550,3.682,0.00
10.567,0.052,0.00
10.583,-2.814,0.00
10.600,-3.254,0.00
10.617,-2.203,0.00
10.633,-2.326,0.00
10.650,-2.327,0.00
10.667,-2.272,0.00
10.683,-2.304,0.00
10.700,-2.133,0.00
10.717,-1.868,0.00
10.733,-1.752,0.00
10.750,-1.077,0.00
10.767,-2.064,0.00
10.783,-2.603,0.00
10.800,-0.981,0.00
10.817,2.728,0.00
10.833,6.447,0.00
10.850,9.057,0.00
10.867,9.066,0.00
10.883,6.563,0.00
10.900,3.905,0.00
10.917,0.397,0.00
10.933,-1.353,0.00
10.950,0.953,0.00
10.967,5.427,0.00
10.983,8.419,0.00
11.000,7.553,0.00
11.017,4.006,0.00
11.033,0.383,0.00
11.050,-0.976,0.00
11.067,0.130,0.00
11.083,0.577,0.00
11.100,0.286,0.00
11.117,0.289,0.00
11.133,0.210,0.00
11.150,0.135,0.00
11.167,0.051,0.00
11.183,0.091,0.00
11.200,0.261,0.00
11.217,0.320,0.00
11.233,0.219,0.00
11.250,0.121,0.00
11.267,-0.034,0.00
11.283,-0.131,0.00
11.300,0.029,0.00
11.317,0.403,0.00
11.333,0.711,0.00
11.350,0.961,0.00
11.367,1.049,0.00
11.383,0.930,0.00
11.400,0.839,0.00
11.417,0.951,0.00
11.433,1.128,0.00
11.450,1.204,0.00
11.467,1.914,0.00
11.483,2.731,0.00
11.500,2.782,0.00
11.517,1.845,0.00
11.533,0.342,0.00
11.550,-0.913,0.00
11.567,-0.967,0.00
11.583,-0.098,0.00
11.600,1.007,0.00
11.617,1.546,0.00
11.633,1.628,0.00
11.650,1.253,0.00
11.667,0.574,0.00
11.683,-0.170,0.00
11.700,-0.759,0.00
11.717,-1.116,0.00
11.733,-1.187,0.00
11.750,-1.308,0.00
11.767,-1.478,0.00
11.783,-1.600,0.00
11.800,-1.684,0.00
11.817,-1.745,0.00
11.833,-1.806,0.00
11.850,-1.788,0.00
11.867,-1.689,0.00
11.883,-1.612,0.00
11.900,-1.561,0.00
11.917,-1.389,0.00
11.933,-1.548,0.00
11.950,-2.022,0.00
11.967,-0.693,0.00
11.983,2.351,0.00
12.000,5.113,0.00
12.017,5.708,0.00
12.033,3.698,0.00
12.050,0.845,0.00
12.067,0.509,0.00
12.083,3.224,0.00
12.100,3.662,0.00
12.117,4.673,0.00
12.133,76.968,0.00
12.150,327.041,0.00
12.167,734.990,0.00
12.183,1090.260,0.00
12.200,1159.863,0.00
12.217,885.192,1.40
12.233,452.759,1.42
12.250,112.554,1.43
12.267,-16.101,1.45
12.283,-10.944,1.47
12.300,6.290,1.49
12.317,3.476,1.50
12.333,-1.336,1.52
12.350,-2.173,1.54
12.367,-1.698,1.56
12.383,-1.398,1.58
12.400,-1.262,1.59
12.417,-1.198,1.61
12.433,-1.240,1.63
12.450,-1.384,1.65
12.467,-1.551,1.67
12.483,-1.656,1.69
12.500,-1.688,1.71
12.517,-1.682,1.73
12.533,-1.718,1.75
12.550,-1.760,1.77
12.567,-1.733,1.79
12.583,-1.721,1.81
12.600,-1.650,1.83
12.617,-1.269,1.85
12.633,-0.695,1.87
12.650,-0.306,1.89
12.667,-0.318,1.91
12.683,-0.743,1.93
12.700,-1.295,1.95
12.717,-1.595,1.98
12.733,-1.529,2.00
12.750,-1.440,2.02
12.767,-1.504,2.04
12.783,-1.572,2.06
12.800,-1.527,2.09
12.817,-1.452,2.11
12.833,-1.259,2.13
12.850,-1.148,2.16
12.867,-1.104,2.18
12.883,-1.221,2.20
12.900,-1.377,2.23
12.917,-1.451,2.25
12.933,-1.472,2.27
12.950,-1.438,2.30
12.967,-1.387,2.32
12.983,-1.378,2.35
13.000,-1.366,2.37
13.017,-1.308,2.40
13.033,-1.216,2.42
13.050,-1.247,2.45
13.067,-1.246,2.47
13.083,-1.279,2.50
13.100,-1.326,2.52
13.117,-1.251,2.55
13.133,-1.216,2.57
13.150,-1.208,2.60
13.167,-1.256,2.63
13.183,-1.188,2.65
13.200,-1.100,2.68
13.217,-1.090,2.71
13.233,-1.114,2.73
13.250,-1.164,2.76
13.267,-1.117,2.79
13.283,-0.957,2.82
13.300,-0.876,2.85
13.317,-0.884,2.87
13.333,-0.835,2.90
13.350,-0.727,2.93
13.367,-0.930,2.96
13.383,-1.058,2.99
13.400,0.208,3.02
13.417,2.311,3.05
13.433,3.893,3.08
13.450,3.928,3.11
13.467,2.376,3.14
13.483,0.402,3.17
13.500,-0.578,3.20
13.517,-0.329,3.23
13.533,0.189,3.26
13.550,0.164,3.29
13.567,0.532,3.32
13.583,0.929,3.35
13.600,1.224,3.39
13.617,1.354,3.42
13.633,1.380,3.45
13.650,1.511,3.48
13.667,1.575,3.51
13.683,1.421,3.55
13.700,1.575,3.58
13.717,1.955,3.61
13.733,2.321,3.65
13.750,2.405,3.68
13.767,2.120,3.72
13.783,1.537,3.75
13.800,1.073,3.78
13.817,0.853,3.82
13.833,0.703,3.85
13.850,0.584,3.89
13.867,0.465,3.92
13.883,0.282,3.96
13.900,0.127,3.99
13.917,-0.012,4.03
13.933,-0.072,4.07
13.950,-0.093,4.10
13.967,-0.076,4.14
13.983,-0.034,4.18
14.000,-0.005,4.21
14.017,0.063,4.25
14.033,0.173,4.29
14.050,0.250,4.33
14.067,0.275,4.36
14.083,0.209,4.40
14.100,0.017,4.44
14.117,-0.191,4.48
14.133,-0.269,4.52
14.150,-0.167,4.56
14.167,-0.071,4.60
14.183,-0.128,4.63
14.200,-0.356,4.67
14.217,-0.620,4.71
14.233,-0.728,4.75
14.250,-0.631,4.80
14.267,-0.525,4.84
14.283,-0.547,4.88
14.300,-0.560,4.92
14.317,-0.577,4.96
14.333,-0.512,5.00
14.350,-0.377,5.04
14.367,-0.268,5.09
14.383,-0.283,5.13
14.400,-0.293,5.17
14.417,-0.258,5.21
14.433,-0.213,5.26
14.450,-0.059,5.30
14.467,0.083,5.34
14.483,0.178,5.39
14.500,0.215,5.43
14.517,0.099,5.48
14.533,-0.133,5.52
14.550,-0.359,5.56
14.567,-0.466,5.61
14.583,-0.427,5.66
14.600,-0.337,5.70
14.617,-0.107,5.75
14.633,0.210,5.79
14.650,0.621,5.84
14.667,0.996,5.89
14.683,1.112,5.93
14.700,0.983,5.98
14.717,0.737,6.03
14.733,0.468,6.07
14.750,0.274,6.12
14.767,0.112,6.17
14.783,-0.059,6.22
14.800,-0.146,6.27
14.817,-0.129,6.32
14.833,-0.086,6.36
14.850,-0.171,6.41
14.867,-0.291,6.46
14.883,-0.304,6.51
14.900,-0.083,6.56
14.917,0.492,6.61
14.933,1.381,6.66
14.950,2.424,6.72
14.967,3.497,6.77
14.983,4.486,6.82
15.000,5.265,6.87
15.017,5.711,6.92
15.033,5.875,6.97
15.050,6.020,7.03
15.067,6.220,7.08
15.083,6.209,7.13
15.100,5.947,7.19
15.117,5.424,7.24
15.133,5.061,7.29
15.150,5.097,7.35
15.167,5.559,7.40
15.183,6.323,7.46
15.200,7.455,7.51
15.217,9.224,7.57
15.233,11.256,7.62
15.250,12.428,7.68
15.267,12.304,7.73
15.283,10.629,7.79
15.300,8.150,7.85
15.317,5.956,7.90
15.333,4.540,7.96
15.350,3.859,8.02
15.367,3.717,8.07
15.383,4.061,8.13
15.400,4.658,8.19
15.417,5.174,8.25
15.433,5.622,8.31
15.450,5.901,8.37
15.467,5.906,8.43
15.483,6.050,8.48
15.500,6.989,8.54
15.517,9.096,8.60
15.533,12.100,8.66
15.550,16.494,8.73
15.567,24.164,8.79
15.583,35.325,8.85
15.600,47.514,8.91
15.617,56.690,8.97
15.633,59.636,9.03
15.650,55.793,9.09
15.667,47.584,9.16
15.683,37.894,9.22
15.700,27.818,9.28
15.717,17.697,9.35
15.733,9.634,9.41
15.750,4.239,9.47
15.767,0.749,9.54
15.783,-1.830,9.60
15.800,-4.086,9.67
15.817,-5.855,9.73
15.833,-6.532,9.80
15.850,-6.455,9.86
15.867,-6.131,9.93
15.883,-6.037,10.00
15.900,-5.883,10.06
15.917,-5.512,10.13
15.933,-5.038,10.20
15.950,-4.657,10.26
15.967,-4.659,10.33
15.983,-4.945,10.40
16.000,-5.119,10.47
16.017,-4.960,10.54
16.033,-4.285,10.60
16.050,-3.497,10.67
16.067,-3.018,10.74
16.083,-2.719,10.81
16.100,-2.359,10.88
16.117,-1.881,10.95
16.133,-1.458,11.02
16.150,-1.319,11.09
16.167,-1.433,11.16
16.183,-1.546,11.24
16.200,-1.328,11.31
16.217,-0.699,11.38
16.233,0.103,11.45
16.250,0.976,11.52
16.267,1.864,11.60
16.283,2.529,11.67
16.300,2.632,11.74
16.317,1.846,11.82
16.333,0.481,11.89
16.350,-0.576,11.97
16.367,-0.616,12.04
16.383,0.296,12.12
16.400,1.249,12.19
16.417,1.378,12.27
16.433,0.372,12.34
16.450,-1.101,12.42
16.467,-2.075,12.49
16.483,-2.340,12.57
16.500,-1.973,12.65
16.517,-1.460,12.72
16.533,-0.966,12.80
16.550,-0.651,12.88
16.567,-0.497,12.96
16.583,-0.562,13.04
16.600,-0.894,13.12
16.617,-1.184,13.19
16.633,-1.385,13.27
16.650,-1.433,13.35
16.667,-1.225,13.43
16.683,-0.765,13.51
16.700,-0.038,13.59
16.717,0.842,13.68
16.733,1.838,13.76
16.750,2.822,13.84
16.767,3.676,13.92
16.783,4.162,14.00
16.800,3.902,14.08
16.817,2.753,14.17
16.833,0.997,14.25
16.850,-0.621,14.33
16.867,-1.515,14.42
16.883,-1.583,14.50
16.900,-1.054,14.58
16.917,-0.283,14.67
16.933,0.425,14.75
16.950,0.893,14.84
16.967,1.072,14.92
16.983,1.009,15.01
17.000,0.902,15.10
17.017,1.053,15.18
17.033,1.529,15.27
17.050,2.062,15.36
17.067,2.489,15.44
17.083,2.639,15.53
17.100,2.582,15.62
17.117,2.496,15.71
17.133,2.485,15.80
17.150,2.610,15.88
17.167,2.918,15.97
17.183,3.350,16.06
17.200,3.552,16.15
17.217,3.315,16.24
17.233,3.048,16.33
17.250,3.415,16.42
17.267,5.782,16.51
17.283,11.833,16.61
17.300,21.691,16.70
17.317,33.101,16.79
17.333,42.081,16.88
17.350,44.961,16.97
17.367,40.695,17.07
17.383,31.707,17.16
17.400,21.899,17.25
17.417,14.236,17.35
17.433,9.424,17.44
17.450,6.791,17.53
17.467,5.252,17.63
17.483,4.181,17.72
17.500,3.436,17.82
17.517,3.132,17.91
17.533,3.278,18.01
17.550,3.588,18.11
17.567,3.807,18.20
17.583,4.156,18.30
17.600,5.206,18.40
17.617,7.460,18.49
17.633,10.729,18.59
17.650,13.702,18.69
17.667,14.692,18.79
17.683,13.083,18.89
17.700,9.786,18.99
17.717,6.395,19.09
17.733,4.193,19.19
17.750,3.593,19.28
17.767,4.086,19.39
17.783,5.035,19.49
17.800,6.168,19.59
17.817,7.518,19.69
17.833,9.010,19.79
17.850,10.801,19.89
17.867,12.920,19.99
17.883,14.907,20.10
17.900,16.197,20.20
17.917,16.452,20.30
17.933,15.331,20.40
17.950,13.008,20.51
17.967,9.966,20.61
17.983,6.971,20.72
18.000,4.649,20.82
18.017,3.767,20.93
18.033,4.495,21.03
18.050,6.556,21.14
18.067,9.541,21.24
18.083,12.648,21.35
18.100,14.701,21.46
18.117,15.220,21.56
18.133,14.712,21.67
18.150,14.768,21.78
18.167,17.241,21.88
18.183,22.461,21.99
18.200,28.626,22.10
18.217,32.990,22.21
18.233,34.547,22.32
18.250,37.026,22.43
18.267,50.520,22.54
18.283,86.895,22.65
18.300,147.497,22.76
18.317,214.983,22.87
18.333,260.545,22.98
18.350,263.306,23.09
18.367,225.841,23.20
18.383,172.963,23.31
18.400,135.666,23.43
18.417,132.269,23.54
18.433,160.246,23.65
18.450,202.128,23.76
18.467,235.916,23.88
18.483,244.395,23.99
18.500,224.288,24.11
18.517,189.566,24.22
18.533,164.585,24.33
18.550,166.635,24.45
18.567,193.226,24.56
18.583,222.789,24.68
18.600,229.857,24.80
18.617,203.232,24.91
18.633,152.733,25.03
18.650,98.911,25.15
18.667,59.125,25.26
18.683,37.995,25.38
18.700,30.989,25.50
18.717,31.219,25.62
18.733,34.809,25.74
18.750,40.980,25.85
18.767,49.050,25.97
18.783,56.381,26.09
18.800,59.640,26.21
18.817,56.302,26.33
18.833,47.389,26.45
18.850,36.087,26.57
18.867,26.299,26.69
18.883,20.200,26.82
18.900,17.718,26.94
18.917,17.446,27.06
18.933,17.954,27.18
18.950,18.345,27.30
18.967,18.204,27.43
18.983,17.759,27.55
19.000,17.637,27.67
19.017,18.146,27.80
19.033,19.321,27.92
19.050,20.876,28.05
19.067,22.287,28.17
19.083,22.998,28.30
19.100,22.694,28.42
19.117,21.440,28.55
19.133,19.473,28.67
19.150,17.348,28.80
19.167,15.788,28.93
19.183,15.213,29.05
19.200,15.628,29.18
19.217,16.554,29.31
19.233,17.436,29.44
19.250,17.734,29.56
19.267,17.236,29.69
19.283,16.158,29.82
19.300,15.091,29.95
19.317,14.650,30.08
19.333,15.281,30.21
19.350,16.992,30.34
19.367,19.186,30.47
19.383,20.951,30.60
19.400,21.895,30.73
19.417,21.681,30.86
19.433,20.792,31.00
19.450,19.653,31.13
19.467,19.091,31.26
19.483,19.256,31.39
19.500,20.184,31.53
19.517,21.585,31.66
19.533,23.210,31.79
19.550,24.960,31.93
19.567,26.642,32.06
19.583,27.984,32.20
19.600,28.873,32.33
19.617,29.198,32.47
19.633,29.140,32.60
19.650,29.039,32.74
19.667,29.093,32.87
19.683,29.505,33.01
19.700,30.433,33.15
19.717,32.125,33.28
19.733,34.575,33.42
19.750,37.550,33.56
19.767,40.590,33.70
19.783,42.864,33.83
19.800,43.440,33.97
19.817,41.799,34.11
19.833,38.181,34.25
19.850,33.618,34.39
19.867,29.570,34.53
19.883,27.285,34.67
19.900,27.334,34.81
19.917,29.721,34.95
19.933,34.226,35.09
19.950,40.131,35.23
19.967,46.675,35.38
19.983,53.619,35.52
20.000,62.134,35.66
20.017,76.032,35.80
20.033,100.367,35.95
20.050,139.090,36.09
20.067,190.960,36.23
20.083,247.880,36.38
20.100,296.385,36.52
20.117,323.709,36.66
20.133,325.274,36.81
20.150,306.618,36.95
20.167,279.441,37.10
20.183,253.557,37.25
20.200,230.970,37.39
20.217,208.527,37.54
20.233,182.565,37.69
20.250,152.857,37.83
20.267,122.513,37.98
20.283,95.115,38.13
20.300,72.830,38.27
20.317,55.984,38.42
20.333,43.876,38.57
20.350,35.354,38.72
20.367,29.329,38.87
20.383,25.094,39.02
20.400,22.126,39.17
20.417,20.097,39.32
20.433,18.890,39.47
20.450,18.207,39.62
20.467,17.648,39.77
20.483,17.116,39.92
20.500,16.808,40.07
20.517,17.250,40.23
20.533,19.271,40.38
20.550,24.107,40.53
20.567,33.200,40.68
20.583,47.884,40.84
20.600,69.397,40.99
20.617,98.078,41.14
20.633,133.031,41.30
20.650,173.105,41.45
20.667,217.430,41.61
20.683,263.975,41.76
20.700,308.471,41.92
20.717,343.089,42.07
20.733,358.829,42.23
20.750,349.646,42.38
20.767,315.968,42.54
20.783,265.322,42.70
20.800,208.450,42.85
20.817,155.524,43.01
20.833,113.210,43.17
20.850,83.277,43.33
20.867,65.150,43.49
20.883,56.433,43.64
20.900,53.978,43.80
20.917,55.333,43.96
20.933,57.956,44.12
20.950,64.566,44.28
20.967,81.596,44.44
20.983,120.220,44.60
21.000,189.958,44.76
21.017,292.402,44.92
21.033,416.727,45.09
21.050,543.041,45.25
21.067,648.407,45.41
21.083,714.579,45.57
21.100,733.396,45.73
21.117,707.891,45.90
21.133,647.815,46.06
21.150,566.195,46.22
21.167,474.959,46.39
21.183,383.212,46.55
21.200,297.109,46.72
21.217,221.674,46.88
21.233,160.629,47.05
21.250,115.201,47.21
21.267,84.262,47.38
21.283,64.606,47.54
21.300,52.482,47.71
21.317,45.277,47.87
21.333,41.674,48.04
21.350,41.235,48.21
21.367,43.770,48.38
21.383,48.931,48.54
21.400,56.831,48.71
21.417,66.781,48.88
21.433,77.629,49.05
21.450,88.072,49.22
21.467,96.667,49.39
21.483,102.295,49.56
21.500,104.697,49.72
21.517,104.430,49.89
21.533,101.875,50.06
21.550,97.352,50.24
21.567,92.122,50.41
21.583,86.476,50.58
21.600,80.739,50.75
21.617,75.388,50.92
21.633,70.785,51.09
21.650,67.251,51.27
21.667,65.621,51.44
21.683,65.727,51.61
21.700,66.782,51.78
21.717,67.635,51.96
21.733,67.340,52.13
21.750,65.040,52.31
21.767,60.551,52.48
21.783,54.306,52.65
21.800,46.958,52.83
21.817,39.508,53.00
21.833,33.085,53.18
21.850,28.329,53.36
21.867,25.607,53.53
21.883,24.568,53.71
21.900,24.610,53.89
21.917,25.114,54.06
21.933,25.711,54.24
21.950,26.352,54.42
21.967,26.832,54.59
21.983,26.818,54.77
22.000,26.059,54.95
22.017,24.606,55.13
22.033,22.892,55.31
22.050,21.298,55.49
22.067,20.102,55.67
22.083,19.537,55.85
22.100,19.794,56.03
22.117,21.134,56.21
22.133,23.847,56.39
22.150,28.349,56.57
22.167,35.046,56.75
22.183,44.277,56.93
22.200,56.642,57.12
22.217,71.375,57.30
22.233,87.994,57.48
22.250,105.223,57.66
22.267,122.410,57.85
22.283,139.145,58.03
22.300,155.772,58.21
22.317,172.489,58.40
22.333,187.850,58.58
22.350,199.021,58.76
22.367,203.646,58.95
22.383,199.774,59.13
22.400,188.132,59.32
22.417,170.247,59.51
22.433,147.950,59.69
22.450,123.349,59.88
22.467,98.571,60.06
22.483,75.593,60.25
22.500,55.710,60.44
22.517,39.754,60.62
22.533,28.115,60.81
22.550,20.436,61.00
22.567,15.906,61.19
22.583,13.565,61.38
22.600,12.152,61.57
22.617,11.321,61.75
22.633,11.193,61.94
22.650,11.932,62.13
22.667,13.667,62.32
22.683,16.517,62.51
22.700,20.493,62.70
22.717,25.194,62.89
22.733,30.154,63.08
22.750,34.978,63.28
22.767,39.368,63.47
22.783,43.533,63.66
22.800,47.976,63.85
22.817,53.271,64.04
22.833,59.845,64.24
22.850,67.800,64.43
22.867,76.943,64.62
22.883,86.320,64.81
22.900,94.930,65.01
22.917,101.712,65.20
22.933,105.893,65.40
22.950,107.317,65.59
22.967,106.351,65.79
22.983,103.579,65.98
23.000,99.134,66.18
23.017,93.341,66.37
23.033,86.266,66.57
23.050,77.717,66.76
23.067,68.539,66.96
23.083,59.148,67.16
23.100,49.958,67.35
23.117,40.907,67.55
23.133,32.448,67.75
23.150,24.667,67.95
23.167,18.033,68.14
23.183,13.443,68.34
23.200,11.277,68.54
23.217,11.359,68.74
23.233,13.397,68.94
23.250,16.492,69.14
23.267,19.573,69.34
23.283,21.906,69.54
23.300,23.331,69.74
23.317,23.775,69.94
23.333,23.170,70.14
23.350,21.444,70.34
23.367,18.640,70.54
23.383,15.109,70.74
23.400,11.385,70.94
23.417,8.105,71.15
23.433,5.768,71.35
23.450,4.479,71.55
23.467,4.107,71.75
23.483,4.312,71.96
23.500,4.658,72.16
23.517,4.968,72.36
23.533,5.193,72.57
23.550,5.355,72.77
23.567,5.393,72.98
23.583,5.200,73.18
23.600,5.011,73.38
23.617,4.892,73.59
23.633,4.866,73.80
23.650,5.009,74.00
23.667,5.071,74.21
23.683,5.149,74.41
23.700,5.183,74.62
23.717,5.290,74.83
23.733,5.306,75.03
23.750,5.129,75.24
23.767,4.820,75.45
23.783,4.432,75.66
23.800,4.333,75.86
23.817,4.849,76.07
23.833,6.159,76.28
23.850,7.879,76.49
23.867,9.683,76.70
23.883,11.469,76.91
23.900,12.981,77.12
23.917,14.191,77.33
23.933,15.018,77.54
23.950,15.326,77.75
23.967,15.099,77.96
23.983,14.386,78.17
24.000,13.215,78.38
24.017,11.561,78.59
24.033,9.547,78.80
24.050,7.438,79.02
24.067,5.458,79.23
24.083,3.761,79.44
24.100,2.382,79.65
24.117,1.187,79.86
24.133,0.108,80.08
24.150,-0.785,80.29
24.167,-1.498,80.51
24.183,-2.061,80.72
24.200,-2.439,80.93
24.217,-2.671,81.15
24.233,-2.820,81.36
24.250,-2.907,81.58
24.267,-2.995,81.79
24.283,-3.128,82.01
24.300,-3.260,82.22
24.317,-3.291,82.44
24.333,-3.186,82.66
24.350,-3.060,82.87
24.367,-2.934,83.09
24.383,-2.827,83.30
24.400,-2.659,83.52
24.417,-2.345,83.74
24.433,-1.969,83.96
24.450,-1.479,84.17
24.467,-1.053,84.39
24.483,-0.654,84.61
24.500,-0.220,84.83
24.517,0.313,85.05
24.533,0.978,85.27
24.550,1.521,85.49
24.567,2.001,85.71
24.583,2.099,85.93
24.600,2.011,86.15
24.617,1.966,86.37
24.633,1.927,86.59
24.650,2.040,86.81
24.667,2.281,87.03
24.683,2.665,87.25
24.700,3.367,87.47
24.717,4.060,87.69
24.733,4.659,87.92
24.750,5.002,88.14
24.767,5.191,88.36
24.783,5.206,88.58
24.800,5.057,88.81
24.817,4.798,89.03
24.833,4.294,89.25
24.850,3.483,89.48
24.867,2.602,89.70
24.883,1.703,89.92
24.900,0.760,90.15
24.917,-0.006,90.37
24.933,-0.541,90.60
24.950,-0.919,90.82
24.967,-1.264,91.05
24.983,-1.454,91.27
25.000,-1.536,91.50
25.017,-1.578,91.73
25.033,-1.653,91.95
25.050,-1.595,92.18
25.067,-1.535,92.41
25.083,-1.351,92.63
25.100,-1.054,92.86
25.117,-0.711,93.09
25.133,-0.382,93.32
25.150,-0.232,93.54
25.167,0.043,93.77
25.183,0.364,94.00
25.200,0.599,94.23
25.217,0.953,94.46
25.233,1.193,94.69
25.250,1.406,94.92
25.267,1.539,95.15
25.283,1.700,95.38
25.300,2.037,95.61
25.317,2.488,95.84
25.333,3.220,96.07
25.350,4.097,96.30
25.367,5.258,96.53
25.383,6.763,96.76
25.400,8.871,96.99
25.417,11.771,97.22
25.433,15.608,97.45
25.450,20.365,97.69
25.467,25.931,97.92
25.483,31.805,98.15
25.500,37.360,98.38
25.517,42.106,98.62
25.533,45.686,98.85
25.550,47.831,99.08
25.567,48.501,99.32
25.583,47.797,99.55
25.600,45.887,99.78
25.617,43.034,100.02
25.633,39.625,100.25
25.650,36.001,100.49
25.667,32.308,100.72
25.683,28.916,100.96
25.700,26.133,101.19
25.717,24.089,101.43
25.733,22.751,101.66
25.750,21.991,101.90
25.767,21.551,102.14
25.783,21.140,102.37
25.800,20.727,102.61
25.817,20.244,102.85
25.833,19.390,103.08
25.850,18.249,103.32
25.867,16.921,103.56
25.883,15.240,103.80
25.900,13.394,104.04
25.917,11.752,104.27
25.933,10.391,104.51
25.950,9.231,104.75
25.967,8.679,104.99
25.983,8.861,105.23
26.000,9.653,105.47
26.017,11.097,105.71
26.033,13.302,105.95
26.050,15.661,106.19
26.067,18.327,106.43
26.083,21.057,106.67
26.100,23.556,106.91
26.117,25.174,107.15
26.133,25.933,107.39
26.150,25.935,107.63
26.167,25.250,107.87
26.183,24.093,108.12
26.200,22.639,108.36
26.217,20.842,108.60
26.233,18.962,108.84
26.250,17.239,109.09
26.267,15.879,109.33
26.283,14.895,109.57
26.300,14.350,109.81
26.317,14.208,110.06
26.333,14.238,110.30
26.350,14.330,110.55
26.367,14.217,110.79
26.383,13.805,111.03
26.400,13.262,111.28
26.417,12.750,111.52
26.433,12.255,111.77
26.450,11.500,112.01
26.467,10.182,112.26
26.483,8.491,112.50
26.500,6.637,112.75
26.517,5.132,113.00
26.533,3.924,113.24
26.550,2.818,113.49
26.567,1.746,113.73
26.583,0.821,113.98
26.600,0.156,114.23
26.617,-0.229,114.48
26.633,-0.622,114.72
26.650,-0.925,114.97
26.667,-1.234,115.22
26.683,-1.459,115.47
26.700,-1.658,115.71
26.717,-1.812,115.96
26.733,-1.944,116.21
26.750,-1.959,116.46
26.767,-1.843,116.71
26.783,-1.776,116.96
26.800,-1.794,117.21
26.817,-1.826,117.46
26.833,-1.910,117.71
26.850,-1.921,117.96
26.867,-1.818,118.21
26.883,-1.664,118.46
26.900,-1.575,118.71
26.917,-1.545,118.96
26.933,-1.499,119.21
26.950,-1.388,119.46
26.967,-1.236,119.71
26.983,-1.075,119.96
27.000,-1.019,120.22
27.017,-0.987,120.47
27.033,-0.786,120.72
27.050,-0.347,120.97
27.067,0.253,121.23
27.083,0.871,121.48
27.100,1.537,121.73
27.117,2.244,121.98
27.133,2.974,122.24
27.150,3.709,122.49
27.167,4.388,122.74
27.183,4.827,123.00
27.200,5.055,123.25
27.217,5.131,123.51
27.233,5.117,123.76
27.250,4.840,124.02
27.267,4.408,124.27
27.283,3.849,124.53
27.300,3.167,124.78
27.317,2.519,125.04
27.333,1.868,125.29
27.350,1.308,125.55
27.367,0.709,125.80
27.383,0.010,126.06
27.400,-0.510,126.32
27.417,-0.918,126.57
27.433,-1.175,126.83
27.450,-1.196,127.09
27.467,-1.178,127.35
27.483,-1.227,127.60
27.500,-1.348,127.86
27.517,-1.444,128.12
27.533,-1.550,128.38
27.550,-1.691,128.63
27.567,-1.758,128.89
27.583,-1.817,129.15
27.600,-1.851,129.41
27.617,-1.802,129.67
27.633,-1.758,129.93
27.650,-1.658,130.19
27.667,-1.553,130.45
27.683,-1.513,130.71
27.700,-1.494,130.97
27.717,-1.518,131.23
27.733,-1.594,131.49
27.750,-1.654,131.75
27.767,-1.672,132.01
27.783,-1.693,132.27
27.800,-1.717,132.53
27.817,-1.652,132.79
27.833,-1.558,133.05
27.850,-1.528,133.31
27.867,-1.484,133.57
27.883,-1.485,133.83
27.900,-1.559,134.10
27.917,-1.598,134.36
27.933,-1.506,134.62
27.950,-1.377,134.88
27.967,-1.342,135.15
27.983,-1.306,135.41
28.000,-1.363,135.67
28.017,-1.391,135.94
28.033,-1.258,136.20
28.050,-1.018,136.46
28.067,-0.762,136.73
28.083,-0.659,136.99
28.100,-0.546,137.25
28.117,-0.483,137.52
28.133,-0.400,137.78
28.150,-0.188,138.05
28.167,-0.049,138.31
28.183,-0.080,138.58
28.200,-0.145,138.84
28.217,-0.235,139.11
28.233,-0.319,139.37
28.250,-0.419,139.64
28.267,-0.414,139.90
28.283,-0.471,140.17
28.300,-0.477,140.44
28.317,-0.480,140.70
28.333,-0.534,140.97
28.350,-0.671,141.24
28.367,-0.760,141.50
28.383,-0.750,141.77
28.400,-0.685,142.04
28.417,-0.614,142.31
28.433,-0.522,142.57
28.450,-0.477,142.84
28.467,-0.450,143.11
28.483,-0.412,143.38
28.500,-0.446,143.64
28.517,-0.553,143.91
28.533,-0.657,144.18
28.550,-0.633,144.45
28.567,-0.566,144.72
28.583,-0.534,144.99
28.600,-0.520,145.26
28.617,-0.543,145.53
28.633,-0.630,145.80
28.650,-0.603,146.07
28.667,-0.502,146.34
28.683,-0.377,146.61
28.700,-0.317,146.88
28.717,-0.244,147.15
28.733,-0.235,147.42
28.750,-0.355,147.69
28.767,-0.389,147.96
28.783,-0.300,148.23
28.800,-0.309,148.50
28.817,-0.301,148.77
28.833,-0.362,149.04
28.850,-0.380,149.32
28.867,-0.334,149.59
28.883,-0.254,149.86
28.900,-0.127,150.13
28.917,-0.083,150.40
28.933,-0.027,150.68
28.950,-0.038,150.95
28.967,-0.151,151.22
28.983,-0.266,151.50
29.000,-0.403,151.77
29.017,-0.488,152.04
29.033,-0.449,152.32
29.050,-0.429,152.59
29.067,-0.360,152.86
29.083,-0.296,153.14
29.100,-0.218,153.41
29.117,-0.162,153.69
29.133,-0.093,153.96
29.150,0.023,154.23
29.167,0.131,154.51
29.183,0.170,154.78
29.200,0.141,155.06
29.217,0.055,155.33
29.233,-0.024,155.61
29.250,-0.031,155.88
29.267,0.004,156.16
29.283,0.076,156.44
29.300,0.100,156.71
29.317,0.090,156.99
29.333,0.023,157.26
29.350,0.019,157.54
29.367,-0.023,157.82
29.383,0.004,158.09
29.400,0.083,158.37
29.417,0.143,158.65
29.433,0.131,158.93
29.450,0.097,159.20
29.467,0.054,159.48
29.483,0.095,159.76
29.500,0.085,160.04
29.517,0.185,160.31
29.533,0.155,160.59
29.550,0.158,160.87
29.567,0.151,161.15
29.583,0.142,161.43
29.600,0.218,161.71
29.617,0.444,161.98
29.633,0.569,162.26
29.650,0.627,162.54
29.667,0.591,162.82
29.683,0.531,163.10
29.700,0.481,163.38
29.717,0.434,163.66
29.733,0.351,163.94
29.750,0.254,164.22
29.767,0.222,164.50
29.783,0.342,164.78
29.800,0.463,165.06
29.817,0.537,165.34
29.833,0.603,165.62
29.850,0.741,165.90
29.867,0.881,166.18
29.883,0.965,166.47
29.900,1.037,166.75
29.917,1.112,167.03
29.933,1.149,167.31
29.950,1.111,167.59
29.967,1.044,167.87
29.983,0.936,168.16
30.000,0.779,168.44
30.017,0.696,168.72
30.033,0.683,169.00
30.050,0.590,169.29
30.067,0.489,169.57
30.083,0.376,169.85
30.100,0.333,170.13
30.117,0.272,170.42
30.133,0.097,170.70
30.150,-0.032,170.98
30.167,-0.147,171.27
30.183,-0.156,171.55
30.200,0.054,171.84
30.217,0.272,172.12
30.233,0.382,172.40
30.250,0.322,172.69
30.267,0.283,172.97
30.283,0.337,173.26
30.300,0.361,173.54
30.317,0.493,173.83
30.333,0.539,174.11
30.350,0.489,174.40
30.367,0.354,174.68
30.383,0.358,174.97
30.400,0.655,175.25
30.417,0.954,175.54
30.433,1.211,175.82
30.450,1.370,176.11
30.467,1.392,176.40
30.483,1.275,176.68
30.500,1.083,176.97
30.517,0.900,177.25
30.533,0.702,177.54
30.550,0.599,177.83
30.567,0.617,178.11
30.583,0.538,178.40
30.600,0.371,178.69
30.617,0.230,178.98
30.633,0.173,179.26
30.650,0.138,179.55
30.667,0.649,179.84
30.683,0.439,180.13
30.700,-1.000,180.41
30.717,0.094,180.70
30.733,3.714,180.99
30.750,7.340,181.28
30.767,8.379,181.57
30.783,6.097,181.85
30.800,2.029,182.14
30.817,-0.929,182.43
30.833,-0.737,182.72
30.850,1.136,183.01
30.867,0.308,183.30
30.883,0.231,183.59
30.900,0.087,183.88
30.917,0.119,184.17
30.933,0.202,184.46
30.950,0.343,184.75
30.967,0.482,185.04
30.983,0.462,185.33
31.000,0.334,185.62
31.017,0.369,185.91
31.033,0.360,186.20
31.050,0.363,186.49
31.067,0.212,186.78
31.083,0.089,187.07
31.100,-0.005,187.36
31.117,0.089,187.65
31.133,0.260,187.94
31.150,0.310,188.23
31.167,0.207,188.53
31.183,0.130,188.82
31.200,0.068,189.11
31.217,0.124,189.40
31.233,0.195,189.69
31.250,0.268,189.98
31.267,0.297,190.28
31.283,0.321,190.57
31.300,0.347,190.86
31.317,0.332,191.15
31.333,0.251,191.45
31.350,0.187,191.74
31.367,0.228,192.03
31.383,0.315,192.32
31.400,0.326,192.62
31.417,0.265,192.91
31.433,0.176,193.20
31.450,0.068,193.50
31.467,0.065,193.79
31.483,0.107,194.08
31.500,0.141,194.38
31.517,0.138,194.67
31.533,0.201,194.97
31.550,0.299,195.26
31.567,0.338,195.55
31.583,0.387,195.85
31.600,0.367,196.14
31.617,0.252,196.44
31.633,0.218,196.73
31.650,0.061,197.03
31.667,-0.101,197.32
31.683,-0.199,197.62
31.700,-0.160,197.91
31.717,0.001,198.21
31.733,-0.038,198.50
31.750,-0.133,198.80
31.767,-0.333,199.09
31.783,-0.403,199.39
31.800,-0.313,199.69
31.817,-0.257,199.98
31.833,-0.270,200.28
31.850,-0.298,200.57
31.867,-0.248,200.87
31.883,-0.129,201.17
31.900,-0.150,201.46
31.917,-0.271,201.76
31.933,-0.444,202.06
31.950,-0.536,202.35
31.967,-0.538,202.65
31.983,-0.458,202.95
32.000,-0.434,203.24
32.017,-0.506,203.54
32.033,-0.611,203.84
32.050,-0.630,204.14
32.067,-0.597,204.43
32.083,-0.592,204.73
32.100,-0.596,205.03
32.117,-0.646,205.33
32.133,-0.731,205.63
32.150,-0.771,205.92
32.167,-0.798,206.22
32.183,-0.854,206.52
32.200,-0.802,206.82
32.217,-0.699,207.12
32.233,-0.672,207.42
32.250,-0.746,207.71
32.267,-0.820,208.01
32.283,-0.852,208.31
32.300,-0.835,208.61
32.317,-0.723,208.91
32.333,-0.664,209.21
32.350,-0.757,209.51
32.367,-0.801,209.81
32.383,-0.775,210.11
32.400,-0.946,210.41
32.417,-0.952,210.71
32.433,-0.981,211.01
32.450,-0.909,211.31
32.467,-0.842,211.61
32.483,-0.792,211.91
32.500,-0.821,212.21
32.517,-0.894,212.51
32.533,-0.874,212.81
32.550,-0.744,213.11
32.567,-0.704,213.41
32.583,-0.672,213.71
32.600,-0.706,214.01
32.617,-0.681,214.31
32.633,-0.587,214.61
32.650,-0.493,214.91
32.667,-0.456,215.22
32.683,-0.524,215.52
32.700,-0.601,215.82
32.717,-0.614,216.12
32.733,-0.524,216.42
32.750,-0.362,216.72
32.767,-0.206,217.03
32.783,-0.114,217.33
32.800,-0.088,217.63
32.817,-0.116,217.93
32.833,-0.154,218.23
32.850,-0.189,218.54
32.867,-0.232,218.84
32.883,-0.255,219.14
32.900,-0.310,219.44
32.917,-0.296,219.75
32.933,-0.213,220.05
32.950,-0.130,220.35
32.967,-0.068,220.66
32.983,-0.061,220.96
33.000,-0.067,221.26
33.017,-0.072,221.57
33.033,-0.061,221.87
33.050,0.017,222.17
33.067,0.118,222.48
33.083,0.141,222.78
33.100,0.177,223.08
33.117,0.084,223.39
33.133,-0.039,223.69
33.150,-0.037,223.99
33.167,0.097,224.30
33.183,0.038,224.60
33.200,0.006,224.91
33.217,0.012,225.21
33.233,0.170,225.52
33.250,0.296,225.82
33.267,0.338,226.13
33.283,0.150,226.43
33.300,-0.088,226.74
33.317,-0.151,227.04
33.333,-0.106,227.35
33.350,-0.156,227.65
33.367,-0.275,227.96
33.383,-0.380,228.26
33.400,-0.429,228.57
33.417,-0.402,228.87
33.433,-0.337,229.18
33.450,-0.231,229.48
33.467,-0.093,229.79
33.483,0.052,230.09
33.500,0.188,230.40
33.517,0.250,230.71
33.533,0.174,231.01
33.550,0.005,231.32
33.567,-0.164,231.62
33.583,-0.252,231.93
33.600,-0.196,232.24
33.617,-0.044,232.54
33.633,0.075,232.85
33.650,0.047,233.16
33.667,-0.060,233.46
33.683,-0.179,233.77
33.700,-0.267,234.08
33.717,-0.313,234.38
33.733,-0.353,234.69
33.750,-0.272,235.00
33.767,-0.118,235.31
33.783,0.106,235.61
33.800,0.151,235.92
33.817,0.063,236.23
33.833,-0.100,236.54
33.850,-0.232,236.84
33.867,-0.299,237.15
33.883,-0.231,237.46
33.900,-0.178,237.77
33.917,0.013,238.07
33.933,0.168,238.38
33.950,0.221,238.69
33.967,0.136,239.00
33.983,0.003,239.31
34.000,-0.111,239.62
34.017,-0.046,239.92
34.033,0.050,240.23
34.050,0.155,240.54
34.067,0.043,240.85
34.083,0.024,241.16
34.100,0.264,241.47
34.117,0.629,241.78
34.133,0.732,242.09
34.150,0.684,242.40
34.167,0.991,242.70
34.183,1.711,243.01
34.200,2.394,243.32
34.217,2.474,243.63
34.233,1.684,243.94
34.250,0.585,244.25
34.267,-0.080,244.56
34.283,-0.159,244.87
34.300,0.080,245.18
34.317,0.300,245.49
34.333,0.464,245.80
34.350,0.488,246.11
34.367,0.352,246.42
34.383,0.205,246.73
34.400,0.159,247.04
34.417,0.343,247.35
34.433,0.526,247.66
34.450,0.500,247.97
34.467,0.469,248.28
34.483,0.532,248.59
34.500,0.587,248.90
34.517,0.575,249.21
34.533,0.393,249.53
34.550,0.110,249.84
34.567,-0.081,250.15
34.583,-0.218,250.46
34.600,-0.403,250.77
34.617,-0.453,251.08
34.633,-0.370,251.39
34.650,-0.334,251.70
34.667,-0.340,252.01
34.683,-0.250,252.33
34.700,-0.126,252.64
34.717,0.068,252.95
34.733,0.173,253.26
34.750,0.122,253.57
34.767,-0.036,253.88
34.783,-0.101,254.20
34.800,-0.089,254.51
34.817,-0.124,254.82
34.833,-0.201,255.13
34.850,-0.199,255.44
34.867,-0.129,255.76
34.883,-0.043,256.07
34.900,-0.065,256.38
34.917,-0.169,256.69
34.933,-0.263,257.01
34.950,-0.169,257.32
34.967,-0.077,257.63
34.983,-0.047,257.94
35.000,0.200,258.26
35.017,0.545,258.57
35.033,0.741,258.88
35.050,0.638,259.20
35.067,0.303,259.51
35.083,-0.107,259.82
35.100,-0.320,260.13
35.117,-0.225,260.45
35.133,-0.065,260.76
35.150,-0.155,261.07
35.167,-0.139,261.39
35.183,-0.217,261.70
35.200,-0.298,262.02
35.217,-0.298,262.33
35.233,-0.210,262.64
35.250,-0.172,262.96
35.267,-0.092,263.27
35.283,0.008,263.58
35.300,-0.081,263.90
35.317,-0.163,264.21
35.333,-0.188,264.53
35.350,-0.273,264.84
35.367,-0.347,265.15
35.383,-0.329,265.47
35.400,-0.381,265.78
35.417,-0.340,266.10
35.433,-0.229,266.41
35.450,-0.082,266.73
35.467,0.007,267.04
35.483,-0.026,267.36
35.500,-0.077,267.67
35.517,-0.156,267.98
35.533,-0.227,268.30
35.550,-0.263,268.61
35.567,-0.327,268.93
35.583,-0.314,269.24
35.600,-0.277,269.56
35.617,-0.291,269.87
35.633,-0.330,270.19
35.650,-0.418,270.50
35.667,-0.458,270.82
35.683,-0.453,271.14
35.700,-0.457,271.45
35.717,-0.377,271.77
35.733,-0.259,272.08
35.750,-0.174,272.40
35.767,-0.100,272.71
35.783,-0.060,273.03
35.800,-0.027,273.34
35.817,-0.039,273.66
35.833,-0.026,273.98
35.850,0.009,274.29
35.867,-0.024,274.61
35.883,-0.012,274.92
35.900,0.115,275.24
35.917,0.104,275.56
35.933,0.064,275.87
35.950,0.016,276.19
35.967,0.071,276.50
35.983,0.097,276.82
36.000,0.138,277.14
36.017,0.059,277.45
36.033,-0.051,277.77
36.050,0.058,278.09
36.067,0.209,278.40
36.083,0.436,278.72
36.100,0.668,279.04
36.117,0.739,279.35
36.133,0.663,279.67
36.150,0.480,279.99
36.167,0.356,280.30
36.183,0.348,280.62
36.200,0.414,280.94
36.217,0.498,281.25
36.233,0.366,281.57
36.250,0.248,281.89
36.267,0.205,282.21
36.283,0.238,282.52
36.300,0.323,282.84
36.317,0.292,283.16
36.333,0.174,283.48
36.350,0.057,283.79
36.367,-0.050,284.11
36.383,-0.133,284.43
36.400,-0.149,284.75
36.417,-0.052,285.06
36.433,0.110,285.38
36.450,0.289,285.70
36.467,0.455,286.02
36.483,0.488,286.34
36.500,0.425,286.65
36.517,0.370,286.97
36.533,0.329,287.29
36.550,0.320,287.61
36.567,0.276,287.93
36.583,0.295,288.24
36.600,0.317,288.56
36.617,0.360,288.88
36.633,0.417,289.20
36.650,0.584,289.52
36.667,0.741,289.84
36.683,0.878,290.15
36.700,1.010,290.47
36.717,1.141,290.79
36.733,1.059,291.11
36.750,0.972,291.43
36.767,0.776,291.75
36.783,0.686,292.07
36.800,0.596,292.38
36.817,0.730,292.70
36.833,0.776,293.02
36.850,0.822,293.34
36.867,0.828,293.66
36.883,0.955,293.98
36.900,1.003,294.30
36.917,1.064,294.62
36.933,1.044,294.94
36.950,1.020,295.26
36.967,0.976,295.57
36.983,0.992,295.89
37.000,1.095,296.21
37.017,1.243,296.53
37.033,1.305,296.85
37.050,1.352,297.17
37.067,1.323,297.49
37.083,1.271,297.81
37.100,1.324,298.13
37.117,1.416,298.45
37.133,1.462,298.77
37.150,1.528,299.09
37.167,1.600,299.41
37.183,1.589,299.73
37.200,1.505,300.05
37.217,1.382,300.37
37.233,1.329,300.69
37.250,1.346,301.01
37.267,1.447,301.33
37.283,1.579,301.65
37.300,1.533,301.97
37.317,1.394,302.29
37.333,1.327,302.61
37.350,1.374,302.93
37.367,1.531,303.25
37.383,1.667,303.57
37.400,1.799,303.89
37.417,1.840,304.21
37.433,1.847,304.53
37.450,1.928,304.85
37.467,1.988,305.17
37.483,2.080,305.49
37.500,2.188,305.81
37.517,2.305,306.13
37.533,2.565,306.45
37.550,2.753,306.77
37.567,2.974,307.10
37.583,3.088,307.42
37.600,3.243,307.74
37.617,3.279,308.06
37.633,3.413,308.38
37.650,3.897,308.70
37.667,4.317,309.02
37.683,3.582,309.34
37.700,2.566,309.66
37.717,2.442,309.98
37.733,3.571,310.30
37.750,5.274,310.63
37.767,5.912,310.95
37.783,4.435,311.27
37.800,1.597,311.59
37.817,-0.812,311.91
37.833,-1.867,312.23
37.850,-2.316,312.55
37.867,-2.804,312.87
37.883,-3.317,313.20
37.900,-3.885,313.52
37.917,-4.218,313.84
37.933,-4.250,314.16
37.950,-4.243,314.48
37.967,-4.146,314.80
37.983,-4.004,315.12
38.000,-3.843,315.45
38.017,-3.640,315.77
38.033,-3.464,316.09
38.050,-3.295,316.41
38.067,-3.119,316.73
38.083,-2.949,317.05
38.100,-2.681,317.38
38.117,-2.373,317.70
38.133,-2.142,318.02
38.150,-1.967,318.34
38.167,-2.061,318.66
38.183,-2.160,318.99
38.200,-2.291,319.31
38.217,-2.333,319.63
38.233,-2.360,319.95
38.250,-2.465,320.27
38.267,-2.526,320.60
38.283,-2.584,320.92
38.300,-2.481,321.24
38.317,-2.300,321.56
38.333,-2.168,321.89
38.350,-2.138,322.21
38.367,-2.282,322.53
38.383,-2.320,322.85
38.400,-2.234,323.18
38.417,-2.132,323.50
38.433,-2.069,323.82
38.450,-2.037,324.14
38.467,-1.996,324.46
38.483,-1.905,324.79
38.500,-1.784,325.11
38.517,-1.733,325.43
38.533,-1.814,325.76
38.550,-1.900,326.08
38.567,-1.914,326.40
38.583,-1.909,326.72
38.600,-1.915,327.05
38.617,-1.909,327.37
38.633,-1.872,327.69
38.650,-1.798,328.01
38.667,-1.631,328.34
38.683,-1.420,328.66
38.700,-1.275,328.98
38.717,-1.297,329.31
38.733,-1.434,329.63
38.750,-1.572,329.95
38.767,-1.600,330.27
38.783,-1.493,330.60
38.800,-1.356,330.92
38.817,-1.280,331.24
38.833,-1.231,331.57
38.850,-1.180,331.89
38.867,-1.144,332.21
38.883,-1.138,332.54
38.900,-1.143,332.86
38.917,-1.199,333.18
38.933,-1.219,333.51
38.950,-1.195,333.83
38.967,-1.185,334.15
38.983,-1.020,334.48
39.000,-1.117,334.80
39.017,-1.035,335.12
39.033,-0.783,335.45
39.050,-0.462,335.77
39.067,-0.255,336.09
39.083,-0.290,336.42
39.100,-0.579,336.74
39.117,-0.960,337.06
39.133,-1.092,337.39
39.150,-0.861,337.71
39.167,-0.709,338.03
39.183,-0.635,338.36
39.200,-0.659,338.68
39.217,-0.699,339.00
39.233,-0.700,339.33
39.250,-0.603,339.65
39.267,-0.453,339.98
39.283,-0.407,340.30
39.300,-0.440,340.62
39.317,-0.471,340.95
39.333,-0.512,341.27
39.350,-0.539,341.59
39.367,-0.501,341.92
39.383,-0.455,342.24
39.400,-0.502,342.57
39.417,-0.520,342.89
39.433,-0.408,343.21
39.450,-0.234,343.54
39.467,-0.151,343.86
39.483,-0.177,344.19
39.500,-0.309,344.51
39.517,-0.428,344.83
39.533,-0.381,345.16
39.550,-0.002,345.48
39.567,0.503,345.81
39.583,0.699,346.13
39.600,0.890,346.45
39.617,1.160,346.78
39.633,2.231,347.10
39.650,3.537,347.43
39.667,4.042,347.75
39.683,3.362,348.08
39.700,1.822,348.40
39.717,0.543,348.72
39.733,-0.012,349.05
39.750,-0.225,349.37
39.767,-0.123,349.70
39.783,-0.174,350.02
39.800,-0.006,350.34
39.817,0.135,350.67
39.833,0.096,350.99
39.850,0.017,351.32
39.867,-0.060,351.64
39.883,-0.040,351.97
39.900,0.021,352.29
39.917,0.075,352.62
39.933,0.199,352.94
39.950,0.348,353.26
39.967,0.446,353.59
39.983,0.504,353.91
40.000,0.541,354.24
40.017,0.556,354.56
40.033,0.556,354.89
40.050,0.529,355.21
40.067,0.467,355.54
40.083,0.386,355.86
40.100,0.313,356.19
40.117,0.298,356.51
40.133,0.337,356.83
40.150,0.389,357.16
40.167,0.417,357.48
40.183,0.346,357.81
40.200,0.190,358.13
40.217,0.140,358.46
40.233,0.183,358.78
40.250,0.314,359.11
40.267,0.442,359.43
40.283,0.565,359.76
40.300,0.704,360.08
40.317,0.680,360.41
40.333,0.614,360.73
40.350,0.575,361.06
40.367,0.445,361.38
40.383,0.437,361.71
40.400,0.426,362.03
40.417,0.330,362.36
40.433,0.211,362.68
40.450,0.113,363.01
40.467,0.098,363.33
40.483,0.038,363.66
40.500,0.075,363.98
40.517,0.147,364.31
40.533,0.157,364.63
40.550,0.214,364.96
40.567,0.253,365.28
40.583,0.225,365.61
40.600,0.189,365.93
40.617,0.159,366.26
40.633,0.176,366.58
40.650,0.191,366.91
40.667,0.233,367.23
40.683,0.287,367.56
40.700,0.352,367.88
40.717,0.487,368.21
40.733,0.643,368.53
40.750,0.709,368.86
40.767,0.652,369.18
40.783,0.523,369.51
40.800,0.383,369.83
40.817,0.273,370.16
40.833,0.159,370.48
40.850,0.029,370.81
40.867,0.118,371.13
40.883,0.493,371.46
40.900,0.915,371.78
40.917,1.152,372.11
40.933,1.111,372.43
40.950,0.791,372.76
40.967,0.481,373.08
40.983,0.422,373.41
41.000,0.504,373.73
41.017,0.469,374.06
41.033,0.594,374.38
41.050,0.888,374.71
41.067,1.000,375.03
41.083,0.896,375.36
41.100,0.670,375.68
41.117,0.391,376.01
41.133,0.220,376.33
41.150,0.295,376.66
41.167,0.265,376.99
41.183,0.270,377.31
41.200,0.308,377.64
41.217,0.397,377.96
41.233,0.423,378.29
41.250,0.414,378.61
41.267,0.329,378.94
41.283,0.256,379.26
41.300,0.249,379.59
41.317,0.304,379.91
41.333,0.271,380.24
41.350,0.228,380.56
41.367,0.157,380.89
41.383,0.179,381.21
41.400,0.320,381.54
41.417,0.486,381.87
41.433,0.486,382.19
41.450,0.282,382.52
41.467,0.038,382.84
41.483,-0.111,383.17
41.500,-0.266,383.49
41.517,-0.377,383.82
41.533,-0.094,384.14
41.550,0.506,384.47
41.567,1.051,384.79
41.583,1.188,385.12
41.600,0.873,385.44
41.617,0.298,385.77
41.633,-0.071,386.10
41.650,-0.090,386.42
41.667,0.055,386.75
