VERSION=1.3
ExportFileName=PM Riku 16_2025-05-14_13-24-16_labchip_PURE_Data_E7
SampleLabel=E7
SampleName=PM Riku 16
SampleComment=
SampleAreaConcRatio=0.014098
SampleLowerMarkerTime=12.12
SampleUpperMarkerTime=-1.00
SamplePeakTimes=12.12,15.05,15.40,17.08,17.63,18.03,18.17,18.28,18.48,18.77,19.07,19.43,19.75,20.35,20.68,21.07,21.92,22.48,22.82,23.43,24.98,25.20,25.55
SamplePeakSizes=1.415,7.669,8.938,16.932,20.260,22.908,23.834,24.662,26.119,28.268,30.649,33.707,36.479,42.060,45.344,49.282,58.609,65.271,69.350,77.200,98.575,101.739,106.935
SamplePeakQuantities=,,,7.1802,2.7954,58.6681,51.1008,64.9004,12.5671,8.1182,4.9885,25.8069,176.1727,190.1098,323.2826,98.7755,149.7603,123.5681,15.3938,16.6871,38.7855,17.1075,38.7457
PlateFileName=2025-05-14_13-24-16_labchip_PURE
PlateAssayName=HT Protein Express 200
PlateBarCode=N/A
WellAquisitionTime=5/14/2025 2:17:02 PM 
PlateDataFrequency=60
PlateDataStartTime=11.00
PlateDataEndTime=42.00
PlateConcUnits=ng/ul
PlateSizeUnits=kDa
PlateLadderSizes=1.40,15.90,20.40,28.90,48.40,68.40,119.20
ChipID=H296P-0563N-03
Operator=ACJS
DATA
Time,Value,Size
0.000,32.350,0.00
0.017,32.364,0.00
0.033,32.110,0.00
0.050,31.906,0.00
0.067,31.834,0.00
0.083,31.856,0.00
0.100,31.818,0.00
0.117,31.775,0.00
0.133,31.665,0.00
0.150,31.601,0.00
0.167,31.608,0.00
0.183,31.789,0.00
0.200,31.961,0.00
0.217,31.989,0.00
0.233,31.942,0.00
0.250,31.876,0.00
0.267,31.711,0.00
0.283,31.344,0.00
0.300,30.774,0.00
0.317,30.163,0.00
0.333,29.572,0.00
0.350,29.180,0.00
0.367,28.730,0.00
0.383,28.083,0.00
0.400,27.323,0.00
0.417,26.506,0.00
0.433,25.618,0.00
0.450,24.630,0.00
0.467,23.727,0.00
0.483,22.777,0.00
0.500,21.921,0.00
0.517,21.107,0.00
0.533,20.207,0.00
0.550,19.167,0.00
0.567,18.183,0.00
0.583,17.315,0.00
0.600,16.552,0.00
0.617,15.842,0.00
0.633,15.152,0.00
0.650,14.418,0.00
0.667,13.758,0.00
0.683,13.097,0.00
0.700,12.438,0.00
0.717,11.822,0.00
0.733,11.334,0.00
0.750,10.828,0.00
0.767,10.330,0.00
0.783,9.798,0.00
0.800,9.262,0.00
0.817,8.824,0.00
0.833,8.444,0.00
0.850,8.023,0.00
0.867,7.648,0.00
0.883,7.368,0.00
0.900,7.041,0.00
0.917,6.720,0.00
0.933,6.392,0.00
0.950,6.018,0.00
0.967,5.685,0.00
0.983,5.399,0.00
1.000,5.090,0.00
1.017,4.842,0.00
1.033,4.625,0.00
1.050,4.419,0.00
1.067,4.208,0.00
1.083,4.075,0.00
1.100,3.849,0.00
1.117,3.571,0.00
1.133,3.324,0.00
1.150,3.056,0.00
1.167,2.824,0.00
1.183,2.691,0.00
1.200,2.523,0.00
1.217,2.335,0.00
1.233,2.115,0.00
1.250,1.941,0.00
1.267,1.786,0.00
1.283,1.646,0.00
1.300,1.553,0.00
1.317,1.349,0.00
1.333,1.110,0.00
1.350,0.927,0.00
1.367,0.786,0.00
1.383,0.625,0.00
1.400,0.538,0.00
1.417,0.481,0.00
1.433,0.337,0.00
1.450,0.234,0.00
1.467,0.051,0.00
1.483,-0.108,0.00
1.500,-0.243,0.00
1.517,-0.278,0.00
1.533,-0.336,0.00
1.550,-0.481,0.00
1.567,-0.559,0.00
1.583,-0.671,0.00
1.600,-0.786,0.00
1.617,-0.841,0.00
1.633,-0.923,0.00
1.650,-0.953,0.00
1.667,-1.028,0.00
1.683,-1.087,0.00
1.700,-1.199,0.00
1.717,-1.382,0.00
1.733,-1.460,0.00
1.750,-1.530,0.00
1.767,-1.633,0.00
1.783,-1.791,0.00
1.800,-1.921,0.00
1.817,-2.065,0.00
1.833,-2.144,0.00
1.850,-2.196,0.00
1.867,-2.249,0.00
1.883,-2.311,0.00
1.900,-2.342,0.00
1.917,-2.425,0.00
1.933,-2.544,0.00
1.950,-2.655,0.00
1.967,-2.710,0.00
1.983,-2.812,0.00
2.000,-2.969,0.00
2.017,-3.119,0.00
2.033,-3.191,0.00
2.050,-3.201,0.00
2.067,-3.245,0.00
2.083,-3.324,0.00
2.100,-3.431,0.00
2.117,-3.458,0.00
2.133,-3.429,0.00
2.150,-3.392,0.00
2.167,-3.435,0.00
2.183,-3.580,0.00
2.200,-3.702,0.00
2.217,-3.772,0.00
2.233,-3.801,0.00
2.250,-3.826,0.00
2.267,-3.862,0.00
2.283,-3.900,0.00
2.300,-3.990,0.00
2.317,-4.044,0.00
2.333,-4.095,0.00
2.350,-4.178,0.00
2.367,-4.259,0.00
2.383,-4.336,0.00
2.400,-4.387,0.00
2.417,-4.462,0.00
2.433,-4.577,0.00
2.450,-4.661,0.00
2.467,-4.722,0.00
2.483,-4.741,0.00
2.500,-4.667,0.00
2.517,-4.635,0.00
2.533,-4.673,0.00
2.550,-4.679,0.00
2.567,-4.687,0.00
2.583,-4.741,0.00
2.600,-4.890,0.00
2.617,-5.003,0.00
2.633,-5.125,0.00
2.650,-5.201,0.00
2.667,-5.270,0.00
2.683,-5.393,0.00
2.700,-5.467,0.00
2.717,-5.488,0.00
2.733,-5.522,0.00
2.750,-5.586,0.00
2.767,-5.695,0.00
2.783,-5.734,0.00
2.800,-5.773,0.00
2.817,-5.776,0.00
2.833,-5.860,0.00
2.850,-5.964,0.00
2.867,-6.060,0.00
2.883,-6.096,0.00
2.900,-6.127,0.00
2.917,-6.174,0.00
2.933,-6.268,0.00
2.950,-6.296,0.00
2.967,-6.331,0.00
2.983,-6.333,0.00
3.000,-6.344,0.00
3.017,-6.387,0.00
3.033,-6.422,0.00
3.050,-6.516,0.00
3.067,-6.618,0.00
3.083,-6.678,0.00
3.100,-6.719,0.00
3.117,-6.695,0.00
3.133,-6.679,0.00
3.150,-6.674,0.00
3.167,-6.696,0.00
3.183,-6.734,0.00
3.200,-6.763,0.00
3.217,-6.896,0.00
3.233,-6.975,0.00
3.250,-7.007,0.00
3.267,-7.069,0.00
3.283,-7.162,0.00
3.300,-7.246,0.00
3.317,-7.226,0.00
3.333,-7.152,0.00
3.350,-7.098,0.00
3.367,-7.185,0.00
3.383,-7.452,0.00
3.400,-7.878,0.00
3.417,-8.399,0.00
3.433,-8.946,0.00
3.450,-9.440,0.00
3.467,-9.814,0.00
3.483,-10.143,0.00
3.500,-10.457,0.00
3.517,-10.794,0.00
3.533,-11.107,0.00
3.550,-11.332,0.00
3.567,-11.450,0.00
3.583,-11.528,0.00
3.600,-11.596,0.00
3.617,-11.677,0.00
3.633,-11.690,0.00
3.650,-11.770,0.00
3.667,-11.842,0.00
3.683,-11.930,0.00
3.700,-11.979,0.00
3.717,-12.002,0.00
3.733,-12.017,0.00
3.750,-12.035,0.00
3.767,-12.057,0.00
3.783,-12.075,0.00
3.800,-12.030,0.00
3.817,-11.986,0.00
3.833,-11.948,0.00
3.850,-11.915,0.00
3.867,-11.922,0.00
3.883,-11.917,0.00
3.900,-11.907,0.00
3.917,-11.884,0.00
3.933,-11.899,0.00
3.950,-11.934,0.00
3.967,-11.928,0.00
3.983,-11.954,0.00
4.000,-11.994,0.00
4.017,-12.042,0.00
4.033,-12.130,0.00
4.050,-12.159,0.00
4.067,-12.127,0.00
4.083,-12.090,0.00
4.100,-12.086,0.00
4.117,-12.109,0.00
4.133,-12.082,0.00
4.150,-12.043,0.00
4.167,-12.018,0.00
4.183,-11.991,0.00
4.200,-11.948,0.00
4.217,-11.972,0.00
4.233,-11.986,0.00
4.250,-12.006,0.00
4.267,-12.022,0.00
4.283,-12.107,0.00
4.300,-12.132,0.00
4.317,-12.110,0.00
4.333,-12.125,0.00
4.350,-12.136,0.00
4.367,-12.128,0.00
4.383,-12.130,0.00
4.400,-12.140,0.00
4.417,-12.158,0.00
4.433,-12.179,0.00
4.450,-12.186,0.00
4.467,-12.123,0.00
4.483,-12.039,0.00
4.500,-11.964,0.00
4.517,-11.931,0.00
4.533,-11.958,0.00
4.550,-11.944,0.00
4.567,-11.958,0.00
4.583,-11.912,0.00
4.600,-11.863,0.00
4.617,-11.808,0.00
4.633,-11.830,0.00
4.650,-11.820,0.00
4.667,-11.747,0.00
4.683,-11.669,0.00
4.700,-11.596,0.00
4.717,-11.557,0.00
4.733,-11.536,0.00
4.750,-11.461,0.00
4.767,-11.342,0.00
4.783,-11.219,0.00
4.800,-11.057,0.00
4.817,-10.820,0.00
4.833,-10.645,0.00
4.850,-10.417,0.00
4.867,-10.108,0.00
4.883,-9.872,0.00
4.900,-9.590,0.00
4.917,-9.276,0.00
4.933,-8.953,0.00
4.950,-8.626,0.00
4.967,-8.271,0.00
4.983,-8.043,0.00
5.000,-7.856,0.00
5.017,-7.600,0.00
5.033,-7.359,0.00
5.050,-7.156,0.00
5.067,-6.926,0.00
5.083,-6.732,0.00
5.100,-6.575,0.00
5.117,-6.448,0.00
5.133,-6.320,0.00
5.150,-6.208,0.00
5.167,-6.060,0.00
5.183,-5.945,0.00
5.200,-5.883,0.00
5.217,-5.751,0.00
5.233,-5.603,0.00
5.250,-5.476,0.00
5.267,-5.398,0.00
5.283,-5.391,0.00
5.300,-5.335,0.00
5.317,-5.258,0.00
5.333,-5.206,0.00
5.350,-5.154,0.00
5.367,-5.166,0.00
5.383,-5.161,0.00
5.400,-5.180,0.00
5.417,-5.234,0.00
5.433,-5.060,0.00
5.450,-4.939,0.00
5.467,-5.007,0.00
5.483,-5.361,0.00
5.500,-5.902,0.00
5.517,-6.384,0.00
5.533,-6.566,0.00
5.550,-6.517,0.00
5.567,-6.471,0.00
5.583,-6.561,0.00
5.600,-6.482,0.00
5.617,-6.315,0.00
5.633,-6.043,0.00
5.650,-5.864,0.00
5.667,-5.865,0.00
5.683,-5.958,0.00
5.700,-5.995,0.00
5.717,-5.908,0.00
5.733,-5.786,0.00
5.750,-5.644,0.00
5.767,-5.606,0.00
5.783,-5.516,0.00
5.800,-5.547,0.00
5.817,-5.637,0.00
5.833,-5.662,0.00
5.850,-5.312,0.00
5.867,-4.809,0.00
5.883,-4.426,0.00
5.900,-4.396,0.00
5.917,-4.652,0.00
5.933,-5.123,0.00
5.950,-5.470,0.00
5.967,-5.576,0.00
5.983,-5.554,0.00
6.000,-5.498,0.00
6.017,-5.340,0.00
6.033,-5.291,0.00
6.050,-5.365,0.00
6.067,-5.429,0.00
6.083,-5.421,0.00
6.100,-5.537,0.00
6.117,-5.780,0.00
6.133,-5.961,0.00
6.150,-6.108,0.00
6.167,-6.063,0.00
6.183,-6.011,0.00
6.200,-5.985,0.00
6.217,-6.018,0.00
6.233,-6.128,0.00
6.250,-6.236,0.00
6.267,-6.350,0.00
6.283,-6.409,0.00
6.300,-6.329,0.00
6.317,-6.214,0.00
6.333,-6.154,0.00
6.350,-6.353,0.00
6.367,-6.544,0.00
6.383,-6.674,0.00
6.400,-6.699,0.00
6.417,-6.659,0.00
6.433,-6.597,0.00
6.450,-6.597,0.00
6.467,-6.669,0.00
6.483,-6.820,0.00
6.500,-6.925,0.00
6.517,-7.035,0.00
6.533,-7.055,0.00
6.550,-7.062,0.00
6.567,-7.923,0.00
6.583,-13.183,0.00
6.600,15.067,0.00
6.617,1.547,0.00
6.633,-47.002,0.00
6.650,-24.058,0.00
6.667,206.261,0.00
6.683,615.376,0.00
6.700,1287.168,0.00
6.717,2071.253,0.00
6.733,2719.034,0.00
6.750,3090.953,0.00
6.767,3221.192,0.00
6.783,3153.015,0.00
6.800,3042.598,0.00
6.817,3004.651,0.00
6.833,3019.938,0.00
6.850,2970.493,0.00
6.867,2959.543,0.00
6.883,2956.588,0.00
6.900,2957.969,0.00
6.917,2961.952,0.00
6.933,2967.177,0.00
6.950,2972.221,0.00
6.967,2974.573,0.00
6.983,2974.769,0.00
7.000,2973.971,0.00
7.017,2973.410,0.00
7.033,2973.361,0.00
7.050,2976.099,0.00
7.067,2979.408,0.00
7.083,2982.421,0.00
7.100,2984.035,0.00
7.117,2984.493,0.00
7.133,2984.475,0.00
7.150,2983.897,0.00
7.167,2982.513,0.00
7.183,2981.256,0.00
7.200,2980.214,0.00
7.217,2980.418,0.00
7.233,2980.123,0.00
7.250,2979.980,0.00
7.267,2978.791,0.00
7.283,2977.237,0.00
7.300,2976.776,0.00
7.317,2976.254,0.00
7.333,2975.184,0.00
7.350,2974.062,0.00
7.367,2970.904,0.00
7.383,2965.953,0.00
7.400,2959.826,0.00
7.417,2954.019,0.00
7.433,2949.009,0.00
7.450,2943.466,0.00
7.467,2937.100,0.00
7.483,2929.569,0.00
7.500,2922.160,0.00
7.517,2914.806,0.00
7.533,2908.485,0.00
7.550,2902.108,0.00
7.567,2895.200,0.00
7.583,2888.468,0.00
7.600,2882.573,0.00
7.617,2876.378,0.00
7.633,2869.820,0.00
7.650,2863.839,0.00
7.667,2857.375,0.00
7.683,2850.659,0.00
7.700,2844.841,0.00
7.717,2838.227,0.00
7.733,2831.460,0.00
7.750,2824.898,0.00
7.767,2819.147,0.00
7.783,2812.267,0.00
7.800,2804.822,0.00
7.817,2798.416,0.00
7.833,2791.520,0.00
7.850,2786.920,0.00
7.867,2782.053,0.00
7.883,2775.750,0.00
7.900,2768.460,0.00
7.917,2761.543,0.00
7.933,2755.574,0.00
7.950,2750.271,0.00
7.967,2744.879,0.00
7.983,2739.274,0.00
8.000,2732.584,0.00
8.017,2727.213,0.00
8.033,2721.525,0.00
8.050,2715.835,0.00
8.067,2710.226,0.00
8.083,2704.731,0.00
8.100,2698.688,0.00
8.117,2693.308,0.00
8.133,2687.168,0.00
8.150,2680.335,0.00
8.167,2673.998,0.00
8.183,2669.508,0.00
8.200,2666.274,0.00
8.217,2662.018,0.00
8.233,2656.651,0.00
8.250,2651.186,0.00
8.267,2645.949,0.00
8.283,2641.697,0.00
8.300,2637.684,0.00
8.317,2632.326,0.00
8.333,2626.871,0.00
8.350,2621.934,0.00
8.367,2617.637,0.00
8.383,2612.717,0.00
8.400,2608.310,0.00
8.417,2604.308,0.00
8.433,2601.068,0.00
8.450,2598.813,0.00
8.467,2597.468,0.00
8.483,2596.212,0.00
8.500,2595.311,0.00
8.517,2594.302,0.00
8.533,2592.258,0.00
8.550,2590.350,0.00
8.567,2589.177,0.00
8.583,2588.049,0.00
8.600,2587.306,0.00
8.617,2586.282,0.00
8.633,2584.911,0.00
8.650,2582.596,0.00
8.667,2580.298,0.00
8.683,2578.861,0.00
8.700,2575.442,0.00
8.717,2572.350,0.00
8.733,2568.105,0.00
8.750,2563.665,0.00
8.767,2559.720,0.00
8.783,2555.299,0.00
8.800,2550.837,0.00
8.817,2546.610,0.00
8.833,2542.965,0.00
8.850,2540.396,0.00
8.867,2537.638,0.00
8.883,2535.151,0.00
8.900,2530.855,0.00
8.917,2526.654,0.00
8.933,2524.025,0.00
8.950,2521.584,0.00
8.967,2520.317,0.00
8.983,2519.690,0.00
9.000,2518.267,0.00
9.017,2516.733,0.00
9.033,2514.603,0.00
9.050,2512.545,0.00
9.067,2511.081,0.00
9.083,2510.269,0.00
9.100,2509.706,0.00
9.117,2507.378,0.00
9.133,2504.395,0.00
9.150,2500.279,0.00
9.167,2495.114,0.00
9.183,2496.803,0.00
9.200,2491.449,0.00
9.217,2479.459,0.00
9.233,2476.625,0.00
9.250,2491.946,0.00
9.267,2547.367,0.00
9.283,2635.075,0.00
9.300,2723.149,0.00
9.317,2776.512,0.00
9.333,2787.721,0.00
9.350,2777.381,0.00
9.367,2757.159,0.00
9.383,2744.222,0.00
9.400,2738.194,0.00
9.417,2725.370,0.00
9.433,2712.912,0.00
9.450,2699.788,0.00
9.467,2686.738,0.00
9.483,2674.416,0.00
9.500,2663.540,0.00
9.517,2653.272,0.00
9.533,2644.111,0.00
9.550,2631.668,0.00
9.567,2637.104,0.00
9.583,2611.465,0.00
9.600,2588.455,0.00
9.617,2601.231,0.00
9.633,2649.163,0.00
9.650,2711.016,0.00
9.667,2731.143,0.00
9.683,2725.720,0.00
9.700,2698.075,0.00
9.717,2649.963,0.00
9.733,2661.359,0.00
9.750,2715.102,0.00
9.767,2827.493,0.00
9.783,2947.278,0.00
9.800,3032.768,0.00
9.817,3020.254,0.00
9.833,3000.448,0.00
9.850,3051.363,0.00
9.867,3068.895,0.00
9.883,2936.361,0.00
9.900,2573.762,0.00
9.917,2054.013,0.00
9.933,1510.214,0.00
9.950,1060.137,0.00
9.967,730.444,0.00
9.983,459.012,0.00
10.000,283.527,0.00
10.017,172.155,0.00
10.033,104.378,0.00
10.050,75.417,0.00
10.067,28.598,0.00
10.083,1.353,0.00
10.100,-14.168,0.00
10.117,-16.574,0.00
10.133,-14.272,0.00
10.150,-12.261,0.00
10.167,-10.134,0.00
10.183,-7.665,0.00
10.200,-5.915,0.00
10.217,-4.678,0.00
10.233,-3.900,0.00
10.250,-3.237,0.00
10.267,-2.768,0.00
10.283,-2.323,0.00
10.300,-1.859,0.00
10.317,-1.320,0.00
10.333,-0.722,0.00
10.350,-0.116,0.00
10.367,0.151,0.00
10.383,-0.200,0.00
10.400,-0.905,0.00
10.417,-1.585,0.00
10.433,-2.048,0.00
10.450,-2.079,0.00
10.467,-1.871,0.00
10.483,-1.956,0.00
10.500,-2.061,0.00
10.517,-2.119,0.00
10.533,-2.086,0.00
10.550,-2.114,0.00
10.567,-2.104,0.00
10.583,-1.899,0.00
10.600,-1.618,0.00
10.617,-1.431,0.00
10.633,-1.382,0.00
10.650,-1.454,0.00
10.667,-1.473,0.00
10.683,-1.364,0.00
10.700,-1.206,0.00
10.717,-1.137,0.00
10.733,-1.063,0.00
10.750,-1.049,0.00
10.767,-1.034,0.00
10.783,-1.046,0.00
10.800,-1.040,0.00
10.817,-0.889,0.00
10.833,-0.736,0.00
10.850,-0.552,0.00
10.867,-0.553,0.00
10.883,-0.541,0.00
10.900,-0.281,0.00
10.917,0.306,0.00
10.933,1.011,0.00
10.950,1.451,0.00
10.967,1.447,0.00
10.983,0.924,0.00
11.000,0.311,0.00
11.017,0.461,0.00
11.033,1.126,0.00
11.050,1.727,0.00
11.067,1.788,0.00
11.083,1.306,0.00
11.100,0.667,0.00
11.117,0.425,0.00
11.133,0.584,0.00
11.150,0.705,0.00
11.167,0.560,0.00
11.183,0.452,0.00
11.200,0.356,0.00
11.217,0.358,0.00
11.233,0.384,0.00
11.250,0.413,0.00
11.267,0.524,0.00
11.283,0.530,0.00
11.300,0.512,0.00
11.317,0.849,0.00
11.333,1.344,0.00
11.350,1.750,0.00
11.367,1.913,0.00
11.383,1.907,0.00
11.400,1.722,0.00
11.417,2.089,0.00
11.433,2.884,0.00
11.450,3.035,0.00
11.467,2.182,0.00
11.483,0.679,0.00
11.500,-0.833,0.00
11.517,-1.634,0.00
11.533,-1.455,0.00
11.550,-0.800,0.00
11.567,-0.400,0.00
11.583,-0.119,0.00
11.600,0.008,0.00
11.617,-0.208,0.00
11.633,-0.466,0.00
11.650,-0.769,0.00
11.667,-0.991,0.00
11.683,-1.090,0.00
11.700,-1.108,0.00
11.717,-1.188,0.00
11.733,-1.283,0.00
11.750,-1.418,0.00
11.767,-1.419,0.00
11.783,-1.459,0.00
11.800,-1.337,0.00
11.817,-1.345,0.00
11.833,-1.304,0.00
11.850,-1.255,0.00
11.867,-1.118,0.00
11.883,-0.979,0.00
11.900,-0.863,0.00
11.917,-0.986,0.00
11.933,-1.074,0.00
11.950,-1.087,0.00
11.967,-1.124,0.00
11.983,-0.191,0.00
12.000,2.397,0.00
12.017,5.616,0.00
12.033,2.235,0.00
12.050,10.061,0.00
12.067,119.114,0.00
12.083,426.718,0.00
12.100,856.530,0.00
12.117,1156.790,1.42
12.133,1120.531,1.43
12.150,768.930,1.45
12.167,329.189,1.47
12.183,43.996,1.49
12.200,-27.134,1.50
12.217,-2.153,1.52
12.233,8.318,1.54
12.250,1.016,1.56
12.267,-2.200,1.58
12.283,-1.438,1.60
12.300,-0.619,1.62
12.317,0.051,1.64
12.333,0.274,1.66
12.350,0.033,1.68
12.367,-0.539,1.70
12.383,-1.076,1.72
12.400,-1.309,1.74
12.417,-1.415,1.76
12.433,-1.381,1.78
12.450,-1.290,1.80
12.467,-1.309,1.82
12.483,-1.197,1.84
12.500,-1.117,1.86
12.517,-1.074,1.88
12.533,-0.981,1.90
12.550,-1.014,1.92
12.567,-1.154,1.95
12.583,-1.366,1.97
12.600,-1.400,1.99
12.617,-1.271,2.01
12.633,-1.149,2.04
12.650,-0.976,2.06
12.667,-1.065,2.08
12.683,-1.201,2.11
12.700,-1.289,2.13
12.717,-1.271,2.15
12.733,-1.226,2.18
12.750,-1.244,2.20
12.767,-1.175,2.22
12.783,-0.970,2.25
12.800,-0.842,2.27
12.817,-0.792,2.30
12.833,-0.909,2.32
12.850,-1.061,2.35
12.867,-1.200,2.37
12.883,-1.066,2.40
12.900,-0.820,2.42
12.917,-0.714,2.45
12.933,-0.703,2.48
12.950,-0.817,2.50
12.967,-0.985,2.53
12.983,-1.184,2.56
13.000,-1.179,2.58
13.017,-1.125,2.61
13.033,-1.075,2.64
13.050,-0.914,2.66
13.067,-0.821,2.69
13.083,-0.882,2.72
13.100,-0.879,2.75
13.117,-0.883,2.78
13.133,-0.733,2.81
13.150,-0.657,2.83
13.167,-0.549,2.86
13.183,-0.478,2.89
13.200,-0.476,2.92
13.217,-0.450,2.95
13.233,-0.417,2.98
13.250,-0.437,3.01
13.267,-0.461,3.04
13.283,-0.535,3.07
13.300,-0.553,3.10
13.317,-0.659,3.13
13.333,-0.683,3.16
13.350,-0.629,3.20
13.367,-0.592,3.23
13.383,-0.606,3.26
13.400,-0.595,3.29
13.417,-0.679,3.32
13.433,-0.631,3.36
13.450,-0.506,3.39
13.467,-0.426,3.42
13.483,-0.431,3.45
13.500,-0.395,3.49
13.517,-0.450,3.52
13.533,-0.440,3.56
13.550,-0.349,3.59
13.567,-0.312,3.62
13.583,-0.349,3.66
13.600,-0.345,3.69
13.617,-0.301,3.73
13.633,-0.190,3.76
13.650,-0.062,3.80
13.667,0.078,3.83
13.683,0.007,3.87
13.700,-0.002,3.91
13.717,0.006,3.94
13.733,-0.089,3.98
13.750,-0.159,4.02
13.767,-0.262,4.05
13.783,-0.278,4.09
13.800,-0.318,4.13
13.817,-0.269,4.17
13.833,-0.149,4.20
13.850,-0.163,4.24
13.867,-0.142,4.28
13.883,-0.290,4.32
13.900,-0.392,4.36
13.917,-0.328,4.40
13.933,-0.029,4.44
13.950,0.222,4.48
13.967,0.085,4.52
13.983,0.781,4.56
14.000,2.326,4.60
14.017,3.830,4.64
14.033,4.487,4.68
14.050,3.756,4.72
14.067,2.249,4.76
14.083,0.837,4.80
14.100,0.279,4.84
14.117,0.214,4.89
14.133,0.168,4.93
14.150,0.444,4.97
14.167,0.683,5.01
14.183,0.579,5.06
14.200,0.324,5.10
14.217,0.025,5.15
14.233,-0.155,5.19
14.250,-0.204,5.23
14.267,-0.270,5.28
14.283,-0.359,5.32
14.300,-0.325,5.37
14.317,-0.255,5.41
14.333,-0.245,5.46
14.350,-0.384,5.50
14.367,-0.522,5.55
14.383,-0.537,5.60
14.400,-0.292,5.64
14.417,0.087,5.69
14.433,0.472,5.74
14.450,0.780,5.78
14.467,1.053,5.83
14.483,1.162,5.88
14.500,1.109,5.93
14.517,0.952,5.98
14.533,0.723,6.02
14.550,0.611,6.07
14.567,0.735,6.12
14.583,0.750,6.17
14.600,0.719,6.22
14.617,0.624,6.27
14.633,0.543,6.32
14.650,0.394,6.37
14.667,0.333,6.42
14.683,0.359,6.48
14.700,0.520,6.53
14.717,0.987,6.58
14.733,1.853,6.63
14.750,2.936,6.68
14.767,4.134,6.73
14.783,5.192,6.79
14.800,5.977,6.84
14.817,6.317,6.89
14.833,6.500,6.95
14.850,6.668,7.00
14.867,6.775,7.06
14.883,6.667,7.11
14.900,6.309,7.16
14.917,6.019,7.22
14.933,6.008,7.27
14.950,6.409,7.33
14.967,7.164,7.39
14.983,8.407,7.44
15.000,10.612,7.50
15.017,13.192,7.56
15.033,15.001,7.61
15.050,15.018,7.67
15.067,12.994,7.73
15.083,9.838,7.79
15.100,7.045,7.84
15.117,5.554,7.90
15.133,4.963,7.96
15.150,4.899,8.02
15.167,5.221,8.08
15.183,5.835,8.14
15.200,6.570,8.20
15.217,7.351,8.26
15.233,7.938,8.32
15.250,8.046,8.38
15.267,8.136,8.44
15.283,9.055,8.50
15.300,11.586,8.56
15.317,14.953,8.63
15.333,20.491,8.69
15.350,30.169,8.75
15.367,42.495,8.81
15.383,53.802,8.88
15.400,60.101,8.94
15.417,59.614,9.00
15.433,53.826,9.07
15.450,46.031,9.13
15.467,38.096,9.20
15.483,28.923,9.26
15.500,19.230,9.33
15.517,10.682,9.39
15.533,4.095,9.46
15.550,-0.184,9.52
15.567,-2.829,9.59
15.583,-4.365,9.66
15.600,-5.286,9.72
15.617,-5.711,9.79
15.633,-5.707,9.86
15.650,-5.562,9.93
15.667,-5.597,9.99
15.683,-5.669,10.06
15.700,-5.620,10.13
15.717,-4.994,10.20
15.733,-4.249,10.27
15.750,-3.716,10.34
15.767,-3.811,10.41
15.783,-4.275,10.48
15.800,-4.700,10.55
15.817,-4.857,10.62
15.833,-4.581,10.69
15.850,-4.095,10.76
15.867,-3.573,10.84
15.883,-3.127,10.91
15.900,-2.708,10.98
15.917,-2.114,11.05
15.933,-1.625,11.13
15.950,-1.132,11.20
15.967,-0.654,11.27
15.983,0.047,11.35
16.000,1.301,11.42
16.017,3.110,11.50
16.033,5.602,11.57
16.050,7.941,11.65
16.067,9.412,11.72
16.083,8.943,11.80
16.100,6.396,11.87
16.117,2.780,11.95
16.133,-0.323,12.03
16.150,-1.998,12.10
16.167,-2.532,12.18
16.183,-2.815,12.26
16.200,-3.075,12.34
16.217,-3.255,12.42
16.233,-3.135,12.49
16.250,-2.568,12.57
16.267,-1.834,12.65
16.283,-1.259,12.73
16.300,-0.731,12.81
16.317,-0.384,12.89
16.333,-0.276,12.97
16.350,-0.468,13.05
16.367,-0.821,13.14
16.383,-1.203,13.22
16.400,-1.644,13.30
16.417,-1.735,13.38
16.433,-1.564,13.46
16.450,-0.934,13.55
16.467,0.062,13.63
16.483,1.333,13.71
16.500,2.744,13.80
16.517,4.061,13.88
16.533,4.945,13.97
16.550,4.814,14.05
16.567,3.563,14.14
16.583,1.649,14.22
16.600,-0.271,14.31
16.617,-1.475,14.39
16.633,-1.842,14.48
16.650,-1.758,14.57
16.667,-1.447,14.65
16.683,-1.102,14.74
16.700,-0.763,14.83
16.717,-0.662,14.92
16.733,-0.631,15.00
16.750,-0.711,15.09
16.767,-0.863,15.18
16.783,-0.847,15.27
16.800,-0.740,15.36
16.817,-0.693,15.45
16.833,-0.635,15.54
16.850,-0.715,15.63
16.867,-0.709,15.72
16.883,-0.673,15.81
16.900,-0.482,15.91
16.917,-0.313,16.00
16.933,-0.157,16.09
16.950,-0.015,16.18
16.967,0.212,16.27
16.983,1.362,16.37
17.000,4.734,16.46
17.017,11.639,16.56
17.033,22.572,16.65
17.050,34.812,16.74
17.067,43.459,16.84
17.083,44.440,16.93
17.100,37.431,17.03
17.117,26.102,17.13
17.133,15.336,17.22
17.150,8.292,17.32
17.167,4.814,17.42
17.183,3.236,17.51
17.200,2.319,17.61
17.217,1.485,17.71
17.233,0.983,17.81
17.250,1.071,17.90
17.267,1.502,18.00
17.283,1.987,18.10
17.300,2.026,18.20
17.317,2.095,18.30
17.333,2.799,18.40
17.350,4.349,18.50
17.367,6.018,18.60
17.383,6.700,18.70
17.400,5.794,18.81
17.417,3.745,18.91
17.433,1.622,19.01
17.450,0.445,19.11
17.467,0.351,19.21
17.483,1.146,19.32
17.500,2.242,19.42
17.517,3.176,19.53
17.533,4.089,19.63
17.550,5.279,19.73
17.567,6.793,19.84
17.583,8.461,19.94
17.600,9.978,20.05
17.617,11.127,20.16
17.633,11.420,20.26
17.650,10.693,20.37
17.667,8.720,20.47
17.683,6.121,20.58
17.700,3.821,20.69
17.717,2.643,20.80
17.733,2.820,20.91
17.750,4.005,21.01
17.767,5.889,21.12
17.783,8.062,21.23
17.800,9.919,21.34
17.817,10.991,21.45
17.833,11.347,21.56
17.850,12.625,21.67
17.867,15.744,21.78
17.883,20.574,21.89
17.900,26.066,22.01
17.917,29.228,22.12
17.933,29.424,22.23
17.950,34.542,22.34
17.967,59.741,22.46
17.983,117.993,22.57
18.000,199.784,22.68
18.017,271.625,22.80
18.033,296.573,22.91
18.050,264.465,23.02
18.067,200.206,23.14
18.083,144.954,23.25
18.100,128.906,23.37
18.117,156.870,23.49
18.133,210.061,23.60
18.150,260.948,23.72
18.167,282.807,23.84
18.183,266.369,23.95
18.200,227.503,24.07
18.217,202.080,24.19
18.233,216.911,24.31
18.250,266.397,24.43
18.267,313.977,24.54
18.283,320.692,24.66
18.300,274.325,24.78
18.317,195.848,24.90
18.333,118.898,25.02
18.350,66.200,25.14
18.367,39.244,25.27
18.383,28.940,25.39
18.400,26.048,25.51
18.417,27.400,25.63
18.433,32.918,25.75
18.450,41.473,25.88
18.467,49.315,26.00
18.483,52.089,26.12
18.500,47.430,26.25
18.517,37.458,26.37
18.533,26.417,26.49
18.550,18.572,26.62
18.567,15.141,26.74
18.583,14.790,26.87
18.600,15.351,26.99
18.617,15.617,27.12
18.633,15.125,27.25
18.650,14.294,27.37
18.667,13.771,27.50
18.683,14.092,27.63
18.700,15.128,27.76
18.717,16.682,27.88
18.733,18.305,28.01
18.750,19.448,28.14
18.767,19.793,28.27
18.783,19.027,28.40
18.800,17.664,28.53
18.817,15.999,28.66
18.833,14.524,28.79
18.850,13.574,28.92
18.867,12.847,29.05
18.883,12.088,29.18
18.900,11.329,29.32
18.917,10.472,29.45
18.933,9.880,29.58
18.950,9.763,29.71
18.967,10.390,29.85
18.983,11.492,29.98
19.000,12.993,30.11
19.017,14.736,30.25
19.033,16.269,30.38
19.050,17.337,30.52
19.067,17.430,30.65
19.083,16.607,30.79
19.100,15.661,30.92
19.117,15.151,31.06
19.133,15.237,31.20
19.150,15.714,31.33
19.167,16.418,31.47
19.183,17.107,31.61
19.200,18.381,31.75
19.217,20.589,31.88
19.233,23.049,32.02
19.250,25.550,32.16
19.267,27.513,32.30
19.283,28.719,32.44
19.300,29.527,32.58
19.317,30.376,32.72
19.333,31.388,32.86
19.350,32.071,33.00
19.367,33.114,33.14
19.383,34.615,33.28
19.400,36.578,33.43
19.417,38.757,33.57
19.433,39.916,33.71
19.450,39.060,33.85
19.467,36.305,34.00
19.483,31.633,34.14
19.500,27.428,34.28
19.517,25.282,34.43
19.533,25.971,34.57
19.550,29.055,34.72
19.567,33.905,34.86
19.583,40.030,35.01
19.600,46.957,35.15
19.617,54.818,35.30
19.633,64.606,35.45
19.650,79.010,35.59
19.667,105.543,35.74
19.683,150.159,35.89
19.700,210.428,36.04
19.717,273.694,36.19
19.733,322.455,36.33
19.750,344.898,36.48
19.767,341.572,36.63
19.783,324.562,36.78
19.800,305.846,36.93
19.817,288.488,37.08
19.833,267.917,37.23
19.850,238.475,37.38
19.867,199.711,37.53
19.883,157.043,37.69
19.900,118.200,37.84
19.917,87.395,37.99
19.933,64.737,38.14
19.950,48.686,38.30
19.967,37.174,38.45
19.983,28.923,38.60
20.000,23.097,38.76
20.017,19.025,38.91
20.033,16.422,39.07
20.050,14.499,39.22
20.067,13.217,39.38
20.083,12.086,39.53
20.100,11.564,39.69
20.117,11.727,39.84
20.133,13.118,40.00
20.150,16.546,40.16
20.167,23.029,40.31
20.183,34.770,40.47
20.200,54.073,40.63
20.217,82.568,40.79
20.233,120.850,40.95
20.250,167.793,41.10
20.267,223.556,41.26
20.283,286.272,41.42
20.300,352.365,41.58
20.317,412.650,41.74
20.333,452.294,41.90
20.350,458.569,42.06
20.367,426.834,42.23
20.383,364.473,42.39
20.400,286.962,42.55
20.417,210.481,42.71
20.433,146.854,42.87
20.450,99.538,43.04
20.467,67.733,43.20
20.483,48.331,43.36
20.500,37.290,43.53
20.517,32.699,43.69
20.533,30.407,43.86
20.550,38.698,44.02
20.567,67.314,44.18
20.583,127.794,44.35
20.600,225.429,44.52
20.617,353.187,44.68
20.633,492.678,44.85
20.650,618.804,45.02
20.667,709.490,45.18
20.683,749.810,45.35
20.700,734.659,45.52
20.717,677.216,45.68
20.733,591.741,45.85
20.750,494.010,46.02
20.767,394.248,46.19
20.783,300.957,46.36
20.800,220.573,46.53
20.817,156.243,46.70
20.833,109.460,46.87
20.850,77.652,47.04
20.867,57.369,47.21
20.883,45.262,47.38
20.900,39.316,47.55
20.917,37.483,47.73
20.933,38.053,47.90
20.950,42.116,48.07
20.967,49.619,48.24
20.983,59.962,48.42
21.000,72.035,48.59
21.017,83.944,48.76
21.033,94.111,48.94
21.050,100.827,49.11
21.067,103.791,49.29
21.083,103.018,49.46
21.100,99.399,49.64
21.117,94.135,49.81
21.133,88.044,49.99
21.150,81.432,50.17
21.167,74.876,50.34
21.183,68.930,50.52
21.200,63.846,50.70
21.217,60.086,50.87
21.233,57.408,51.05
21.250,56.022,51.23
21.267,55.561,51.41
21.283,55.069,51.59
21.300,53.732,51.77
21.317,50.824,51.95
21.333,46.545,52.13
21.350,41.388,52.31
21.367,35.882,52.49
21.383,30.741,52.67
21.400,26.189,52.85
21.417,23.096,53.03
21.433,21.331,53.21
21.450,20.505,53.39
21.467,20.207,53.58
21.483,19.930,53.76
21.500,19.615,53.94
21.517,19.303,54.12
21.533,18.927,54.31
21.550,18.176,54.49
21.567,17.273,54.68
21.583,16.292,54.86
21.600,15.354,55.04
21.617,14.859,55.23
21.633,14.951,55.42
21.650,15.771,55.60
21.667,17.521,55.79
21.683,20.480,55.97
21.700,25.197,56.16
21.717,32.741,56.35
21.733,43.769,56.53
21.750,58.165,56.72
21.767,74.771,56.91
21.783,92.982,57.10
21.800,112.258,57.29
21.817,132.266,57.48
21.833,152.519,57.66
21.850,173.100,57.85
21.867,193.157,58.04
21.883,211.236,58.23
21.900,224.023,58.42
21.917,227.895,58.61
21.933,220.391,58.81
21.950,202.836,59.00
21.967,178.051,59.19
21.983,149.230,59.38
22.000,119.233,59.57
22.017,90.726,59.77
22.033,65.589,59.96
22.050,45.720,60.15
22.067,31.577,60.34
22.083,22.377,60.54
22.100,16.702,60.73
22.117,13.450,60.93
22.133,11.517,61.12
22.150,10.451,61.32
22.167,10.136,61.51
22.183,10.724,61.71
22.200,12.699,61.90
22.217,16.413,62.10
22.233,21.655,62.30
22.250,27.598,62.49
22.267,33.452,62.69
22.283,38.648,62.89
22.300,43.335,63.08
22.317,47.717,63.28
22.333,52.976,63.48
22.350,60.051,63.68
22.367,69.818,63.88
22.383,82.739,64.08
22.400,97.004,64.28
22.417,111.349,64.48
22.433,124.118,64.68
22.450,133.822,64.88
22.467,139.492,65.08
22.483,141.270,65.28
22.500,140.581,65.48
22.517,137.765,65.68
22.533,132.705,65.88
22.550,124.756,66.08
22.567,113.539,66.29
22.583,100.713,66.49
22.600,86.948,66.69
22.617,72.926,66.90
22.633,58.661,67.10
22.650,45.140,67.30
22.667,33.476,67.51
22.683,24.660,67.71
22.700,18.960,67.92
22.717,16.276,68.12
22.733,16.514,68.33
22.750,18.950,68.53
22.767,22.361,68.74
22.783,25.571,68.94
22.800,27.700,69.15
22.817,28.676,69.36
22.833,28.169,69.56
22.850,26.150,69.77
22.867,22.928,69.98
22.883,18.768,70.19
22.900,14.098,70.40
22.917,10.043,70.60
22.933,7.151,70.81
22.950,5.512,71.02
22.967,5.054,71.23
22.983,5.448,71.44
23.000,5.943,71.65
23.017,6.289,71.86
23.033,6.495,72.07
23.050,6.497,72.28
23.067,6.451,72.49
23.083,6.564,72.70
23.100,6.591,72.92
23.117,6.549,73.13
23.133,6.430,73.34
23.150,6.320,73.55
23.167,6.311,73.77
23.183,6.513,73.98
23.200,6.764,74.19
23.217,6.681,74.41
23.233,6.382,74.62
23.250,6.088,74.83
23.267,5.888,75.05
23.283,6.119,75.26
23.300,6.948,75.48
23.317,8.499,75.69
23.333,10.740,75.91
23.350,13.627,76.13
23.367,16.605,76.34
23.383,19.190,76.56
23.400,21.230,76.77
23.417,22.764,76.99
23.433,23.427,77.21
23.450,23.304,77.43
23.467,22.547,77.64
23.483,21.151,77.86
23.500,18.908,78.08
23.517,16.056,78.30
23.533,12.990,78.52
23.550,10.102,78.74
23.567,7.607,78.96
23.583,5.625,79.18
23.600,3.759,79.40
23.617,1.982,79.62
23.633,0.485,79.84
23.650,-0.677,80.06
23.667,-1.333,80.28
23.683,-1.616,80.50
23.700,-1.679,80.72
23.717,-1.886,80.94
23.733,-2.304,81.17
23.750,-2.643,81.39
23.767,-2.645,81.61
23.783,-2.212,81.84
23.800,-1.651,82.06
23.817,-1.359,82.28
23.833,-1.306,82.51
23.850,-1.594,82.73
23.867,-1.866,82.95
23.883,-1.904,83.18
23.900,-1.693,83.40
23.917,-1.375,83.63
23.933,-1.208,83.85
23.950,-1.017,84.08
23.967,-0.796,84.31
23.983,-0.493,84.53
24.000,-0.179,84.76
24.017,0.018,84.99
24.033,0.012,85.21
24.050,0.045,85.44
24.067,0.141,85.67
24.083,0.180,85.90
24.100,0.188,86.12
24.117,0.258,86.35
24.133,0.441,86.58
24.150,0.731,86.81
24.167,1.185,87.04
24.183,1.790,87.27
24.200,2.269,87.50
24.217,2.771,87.73
24.233,3.080,87.96
24.250,3.143,88.19
24.267,3.015,88.42
24.283,2.753,88.65
24.300,2.446,88.88
24.317,1.912,89.11
24.333,1.315,89.35
24.350,0.698,89.58
24.367,-0.009,89.81
24.383,-0.585,90.04
24.400,-1.071,90.28
24.417,-1.550,90.51
24.433,-1.861,90.74
24.450,-2.048,90.98
24.467,-2.060,91.21
24.483,-2.149,91.44
24.500,-2.277,91.68
24.517,-2.460,91.91
24.533,-2.656,92.15
24.550,-2.714,92.38
24.567,-2.693,92.62
24.583,-2.626,92.85
24.600,-2.440,93.09
24.617,-2.412,93.33
24.633,-2.464,93.56
24.650,-2.490,93.80
24.667,-2.347,94.04
24.683,-2.073,94.27
24.700,-1.780,94.51
24.717,-1.522,94.75
24.733,-1.262,94.99
24.750,-0.820,95.22
24.767,-0.063,95.46
24.783,1.062,95.70
24.800,2.535,95.94
24.817,4.462,96.18
24.833,7.054,96.42
24.850,10.584,96.66
24.867,15.297,96.90
24.883,21.215,97.14
24.900,27.631,97.38
24.917,33.944,97.62
24.933,39.266,97.86
24.950,43.449,98.10
24.967,46.147,98.34
24.983,47.134,98.59
25.000,46.438,98.83
25.017,44.423,99.07
25.033,41.537,99.31
25.050,37.849,99.55
25.067,33.740,99.80
25.083,29.862,100.04
25.100,26.361,100.28
25.117,23.932,100.53
25.133,22.724,100.77
25.150,22.485,101.02
25.167,22.864,101.26
25.183,23.454,101.50
25.200,23.840,101.75
25.217,23.653,101.99
25.233,23.152,102.24
25.250,22.275,102.49
25.267,20.967,102.73
25.283,19.364,102.98
25.300,17.469,103.22
25.317,15.545,103.47
25.333,13.773,103.72
25.350,12.096,103.96
25.367,10.913,104.21
25.383,10.477,104.46
25.400,10.973,104.71
25.417,12.473,104.95
25.433,14.937,105.20
25.450,18.051,105.45
25.467,21.300,105.70
25.483,24.551,105.95
25.500,27.270,106.20
25.517,29.244,106.45
25.533,30.377,106.70
25.550,30.513,106.95
25.567,29.906,107.20
25.583,28.533,107.45
25.600,26.629,107.70
25.617,24.339,107.95
25.633,21.783,108.20
25.650,19.615,108.45
25.667,17.754,108.70
25.683,16.513,108.95
25.700,15.804,109.21
25.717,15.623,109.46
25.733,15.770,109.71
25.750,15.735,109.96
25.767,15.578,110.22
25.783,15.010,110.47
25.800,14.136,110.72
25.817,13.184,110.98
25.833,11.935,111.23
25.850,10.482,111.48
25.867,8.967,111.74
25.883,7.345,111.99
25.900,5.834,112.25
25.917,4.447,112.50
25.933,3.135,112.76
25.950,2.063,113.01
25.967,1.175,113.27
25.983,0.444,113.52
26.000,0.086,113.78
26.017,-0.039,114.04
26.033,-0.097,114.29
26.050,-0.394,114.55
26.067,-0.715,114.81
26.083,-1.041,115.06
26.100,-1.354,115.32
26.117,-1.327,115.58
26.133,-1.317,115.84
26.150,-1.419,116.09
26.167,-1.493,116.35
26.183,-1.614,116.61
26.200,-1.737,116.87
26.217,-1.838,117.13
26.233,-1.930,117.39
26.250,-1.858,117.65
26.267,-1.789,117.91
26.283,-1.675,118.17
26.300,-1.633,118.43
26.317,-1.689,118.69
26.333,-1.634,118.95
26.350,-1.473,119.21
26.367,-1.136,119.47
26.383,-0.796,119.73
26.400,-0.532,119.99
26.417,-0.035,120.25
26.433,0.461,120.52
26.450,1.074,120.78
26.467,1.831,121.04
26.483,2.723,121.30
26.500,3.673,121.56
26.517,4.578,121.83
26.533,5.377,122.09
26.550,5.822,122.35
26.567,6.028,122.62
26.583,6.083,122.88
26.600,5.862,123.14
26.617,5.698,123.41
26.633,4.797,123.67
26.650,4.110,123.94
26.667,3.740,124.20
26.683,3.330,124.47
26.700,2.659,124.73
26.717,1.643,125.00
26.733,0.555,125.26
26.750,-0.361,125.53
26.767,-0.708,125.80
26.783,-0.768,126.06
26.800,-1.341,126.33
26.817,-1.515,126.59
26.833,-1.566,126.86
26.850,-1.570,127.13
26.867,-1.595,127.40
26.883,-1.577,127.66
26.900,-1.499,127.93
26.917,-1.404,128.20
26.933,-1.328,128.47
26.950,-1.282,128.74
26.967,-1.252,129.00
26.983,-1.253,129.27
27.000,-1.227,129.54
27.017,-1.095,129.81
27.033,-0.757,130.08
27.050,-1.043,130.35
27.067,-1.950,130.62
27.083,-0.418,130.89
27.100,2.831,131.16
27.117,5.548,131.43
27.133,5.790,131.70
27.150,3.634,131.97
27.167,0.957,132.24
27.183,-0.084,132.51
27.200,0.850,132.78
27.217,1.245,133.06
27.233,0.170,133.33
27.250,-0.274,133.60
27.267,-0.427,133.87
27.283,-0.434,134.14
27.300,-0.573,134.42
27.317,-0.798,134.69
27.333,-1.020,134.96
27.350,-1.137,135.24
27.367,-1.154,135.51
27.383,-1.054,135.78
27.400,-0.961,136.06
27.417,-0.849,136.33
27.433,-0.617,136.60
27.450,-0.482,136.88
27.467,-0.347,137.15
27.483,-0.336,137.43
27.500,-0.358,137.70
27.517,-0.414,137.98
27.533,-0.389,138.25
27.550,-0.322,138.53
27.567,-0.363,138.80
27.583,-0.629,139.08
27.600,-0.842,139.36
27.617,-0.889,139.63
27.633,-0.740,139.91
27.650,-0.641,140.18
27.667,-0.635,140.46
27.683,-0.753,140.74
27.700,-0.870,141.02
27.717,-0.895,141.29
27.733,-0.908,141.57
27.750,-0.953,141.85
27.767,-0.937,142.13
27.783,-0.907,142.40
27.800,-0.800,142.68
27.817,-0.720,142.96
27.833,-0.639,143.24
27.850,-0.608,143.52
27.867,-0.682,143.80
27.883,-0.799,144.08
27.900,-0.852,144.36
27.917,-0.710,144.64
27.933,-0.662,144.91
27.950,-0.690,145.19
27.967,-0.663,145.48
27.983,-0.665,145.76
28.000,-0.649,146.04
28.017,-0.619,146.32
28.033,-0.598,146.60
28.050,-0.655,146.88
28.067,-0.695,147.16
28.083,-0.705,147.44
28.100,-0.770,147.72
28.117,-0.837,148.00
28.133,-0.823,148.29
28.150,-0.853,148.57
28.167,-0.866,148.85
28.183,-0.768,149.13
28.200,-0.642,149.42
28.217,-0.519,149.70
28.233,-0.524,149.98
28.250,-0.567,150.27
28.267,-0.645,150.55
28.283,-0.672,150.83
28.300,-0.629,151.12
28.317,-0.550,151.40
28.333,-0.494,151.68
28.350,-0.466,151.97
28.367,-0.476,152.25
28.383,-0.490,152.54
28.400,-0.379,152.82
28.417,-0.251,153.11
28.433,-0.221,153.39
28.450,-0.225,153.68
28.467,-0.313,153.96
28.483,-0.266,154.25
28.500,-0.128,154.53
28.517,0.018,154.82
28.533,-0.032,155.11
28.550,-0.152,155.39
28.567,-0.233,155.68
28.583,-0.387,155.97
28.600,-0.306,156.25
28.617,-0.211,156.54
28.633,-0.224,156.83
28.650,-0.272,157.11
28.667,-0.308,157.40
28.683,-0.261,157.69
28.700,-0.291,157.98
28.717,-0.195,158.27
28.733,-0.127,158.55
28.750,-0.229,158.84
28.767,-0.220,159.13
28.783,-0.253,159.42
28.800,0.033,159.71
28.817,0.515,160.00
28.833,1.049,160.29
28.850,1.249,160.58
28.867,1.010,160.87
28.883,0.618,161.16
28.900,0.273,161.45
28.917,0.019,161.74
28.933,-0.096,162.03
28.950,-0.133,162.32
28.967,-0.099,162.61
28.983,-0.067,162.90
29.000,-0.039,163.19
29.017,-0.062,163.48
29.033,-0.102,163.77
29.050,-0.174,164.06
29.067,-0.092,164.35
29.083,-0.281,164.65
29.100,-0.290,164.94
29.117,0.112,165.23
29.133,0.399,165.52
29.150,0.466,165.81
29.167,0.327,166.11
29.183,0.160,166.40
29.200,0.100,166.69
29.217,0.279,166.98
29.233,0.515,167.28
29.250,0.351,167.57
29.267,0.196,167.86
29.283,-0.003,168.16
29.300,-0.036,168.45
29.317,0.165,168.75
29.333,0.357,169.04
29.350,0.339,169.33
29.367,0.107,169.63
29.383,-0.134,169.92
29.400,-0.251,170.22
29.417,-0.089,170.51
29.433,0.054,170.81
29.450,-0.011,171.10
29.467,0.005,171.40
29.483,0.000,171.69
29.500,0.164,171.99
29.517,0.564,172.28
29.533,0.915,172.58
29.550,1.188,172.88
29.567,1.271,173.17
29.583,1.266,173.47
29.600,1.172,173.77
29.617,1.109,174.06
29.633,1.051,174.36
29.650,0.957,174.66
29.667,0.519,174.95
29.683,0.425,175.25
29.700,0.608,175.55
29.717,0.862,175.85
29.733,1.006,176.14
29.750,0.878,176.44
29.767,0.437,176.74
29.783,-0.012,177.04
29.800,-0.017,177.34
29.817,0.312,177.63
29.833,0.304,177.93
29.850,0.481,178.23
29.867,0.531,178.53
29.883,0.482,178.83
29.900,0.338,179.13
29.917,0.166,179.43
29.933,-0.070,179.73
29.950,-0.240,180.03
29.967,-0.236,180.33
29.983,-0.225,180.63
30.000,-0.306,180.93
30.017,-0.351,181.23
30.033,-0.310,181.53
30.050,-0.225,181.83
30.067,-0.155,182.13
30.083,-0.211,182.43
30.100,-0.330,182.73
30.117,-0.356,183.03
30.133,-0.284,183.33
30.150,-0.194,183.63
30.167,-0.153,183.94
30.183,-0.104,184.24
30.200,-0.107,184.54
30.217,-0.117,184.84
30.233,-0.074,185.14
30.250,-0.226,185.45
30.267,-0.345,185.75
30.283,-0.338,186.05
30.300,-0.284,186.35
30.317,-0.176,186.66
30.333,-0.085,186.96
30.350,-0.084,187.26
30.367,-0.167,187.57
30.383,-0.189,187.87
30.400,-0.294,188.17
30.417,-0.360,188.48
30.433,-0.409,188.78
30.450,-0.569,189.08
30.467,-0.554,189.39
30.483,-0.311,189.69
30.500,-0.068,190.00
30.517,0.008,190.30
30.533,-0.063,190.60
30.550,-0.289,190.91
30.567,-0.510,191.21
30.583,-0.366,191.52
30.600,-0.158,191.82
30.617,-0.202,192.13
30.633,-0.263,192.43
30.650,-0.369,192.74
30.667,-0.407,193.05
30.683,-0.342,193.35
30.700,-0.242,193.66
30.717,-0.280,193.96
30.733,-0.326,194.27
30.750,-0.327,194.58
30.767,-0.251,194.88
30.783,-0.243,195.19
30.800,-0.196,195.49
30.817,-0.253,195.80
30.833,-0.242,196.11
30.850,-0.221,196.42
30.867,-0.271,196.72
30.883,-0.347,197.03
30.900,-0.376,197.34
30.917,-0.365,197.65
30.933,-0.321,197.95
30.950,-0.365,198.26
30.967,-0.331,198.57
30.983,-0.291,198.88
31.000,-0.151,199.18
31.017,-0.012,199.49
31.033,0.057,199.80
31.050,0.025,200.11
31.067,-0.114,200.42
31.083,-0.179,200.73
31.100,-0.183,201.04
31.117,-0.228,201.35
31.133,-0.271,201.65
31.150,-0.465,201.96
31.167,-0.576,202.27
31.183,-0.563,202.58
31.200,-0.357,202.89
31.217,-0.210,203.20
31.233,-0.183,203.51
31.250,-0.264,203.82
31.267,-0.350,204.13
31.283,-0.413,204.44
31.300,-0.405,204.75
31.317,-0.362,205.06
31.333,-0.235,205.37
31.350,-0.244,205.68
31.367,-0.252,206.00
31.383,-0.240,206.31
31.400,-0.091,206.62
31.417,0.056,206.93
31.433,0.263,207.24
31.450,0.322,207.55
31.467,0.371,207.86
31.483,0.585,208.18
31.500,0.604,208.49
31.517,0.776,208.80
31.533,1.144,209.11
31.550,1.582,209.42
31.567,2.096,209.74
31.583,2.479,210.05
31.600,2.659,210.36
31.617,2.385,210.67
31.633,1.957,210.99
31.650,1.520,211.30
31.667,0.964,211.61
31.683,0.676,211.92
31.700,0.581,212.24
31.717,0.506,212.55
31.733,0.517,212.86
31.750,0.486,213.18
31.767,0.379,213.49
31.783,0.117,213.81
31.800,-0.135,214.12
31.817,-0.337,214.43
31.833,-0.408,214.75
31.850,-0.400,215.06
31.867,-0.329,215.38
31.883,-0.320,215.69
31.900,-0.447,216.00
31.917,-0.565,216.32
31.933,-0.601,216.63
31.950,-0.610,216.95
31.967,-0.563,217.26
31.983,-0.541,217.58
32.000,-0.395,217.89
32.017,-0.283,218.21
32.033,-0.161,218.53
32.050,-0.113,218.84
32.067,-0.195,219.16
32.083,-0.207,219.47
32.100,-0.161,219.79
32.117,-0.124,220.10
32.133,-0.101,220.42
32.150,-0.154,220.74
32.167,-0.174,221.05
32.183,-0.098,221.37
32.200,0.057,221.69
32.217,0.233,222.00
32.233,0.252,222.32
32.250,0.224,222.64
32.267,0.334,222.95
32.283,0.588,223.27
32.300,0.689,223.59
32.317,0.596,223.90
32.333,0.407,224.22
32.350,0.325,224.54
32.367,0.357,224.86
32.383,0.479,225.17
32.400,0.392,225.49
32.417,0.128,225.81
32.433,0.015,226.13
32.450,0.069,226.45
32.467,0.142,226.76
32.483,0.195,227.08
32.500,0.158,227.40
32.517,0.109,227.72
32.533,0.117,228.04
32.550,0.192,228.36
32.567,0.251,228.67
32.583,0.262,228.99
32.600,0.437,229.31
32.617,0.559,229.63
32.633,0.587,229.95
32.650,0.423,230.27
32.667,0.218,230.59
32.683,0.036,230.91
32.700,-0.033,231.23
32.717,-0.022,231.55
32.733,-0.065,231.87
32.750,-0.149,232.19
32.767,-0.202,232.51
32.783,-0.254,232.83
32.800,-0.227,233.15
32.817,-0.154,233.47
32.833,-0.054,233.79
32.850,-0.084,234.11
32.867,-0.129,234.43
32.883,-0.235,234.75
32.900,-0.366,235.07
32.917,-0.438,235.39
32.933,-0.416,235.71
32.950,-0.415,236.03
32.967,-0.462,236.35
32.983,-0.500,236.68
33.000,-0.497,237.00
33.017,-0.444,237.32
33.033,-0.281,237.64
33.050,-0.256,237.96
33.067,-0.327,238.28
33.083,-0.387,238.60
33.100,-0.427,238.93
33.117,-0.462,239.25
33.133,-0.503,239.57
33.150,-0.543,239.89
33.167,-0.479,240.21
33.183,-0.477,240.54
33.200,-0.015,240.86
33.217,0.671,241.18
33.233,1.258,241.50
33.250,1.357,241.83
33.267,0.871,242.15
33.283,0.160,242.47
33.300,-0.363,242.79
33.317,-0.421,243.12
33.333,-0.301,243.44
33.350,-0.347,243.76
33.367,-0.331,244.09
33.383,-0.416,244.41
33.400,-0.420,244.73
33.417,-0.292,245.06
33.433,-0.204,245.38
33.450,-0.161,245.70
33.467,-0.147,246.03
33.483,-0.161,246.35
33.500,-0.190,246.68
33.517,-0.130,247.00
33.533,-0.135,247.32
33.550,-0.233,247.65
33.567,-0.279,247.97
33.583,-0.312,248.30
33.600,-0.425,248.62
33.617,-0.515,248.95
33.633,-0.562,249.27
33.650,-0.516,249.60
33.667,-0.587,249.92
33.683,-0.427,250.25
33.700,0.124,250.57
33.717,0.763,250.89
33.733,1.076,251.22
33.750,1.030,251.55
33.767,0.823,251.87
33.783,0.499,252.20
33.800,0.450,252.52
33.817,0.437,252.85
33.833,0.271,253.17
33.850,0.132,253.50
33.867,0.164,253.82
33.883,0.119,254.15
33.900,-0.004,254.48
33.917,0.564,254.80
33.933,1.618,255.13
33.950,2.304,255.45
33.967,2.272,255.78
33.983,1.519,256.11
34.000,0.705,256.43
34.017,0.091,256.76
34.033,0.011,257.09
34.050,0.049,257.41
34.067,0.041,257.74
34.083,-0.062,258.07
34.100,-0.182,258.39
34.117,-0.339,258.72
34.133,-0.470,259.05
34.150,-0.442,259.37
34.167,-0.313,259.70
34.183,-0.323,260.03
34.200,-0.423,260.36
34.217,-0.449,260.68
34.233,-0.374,261.01
34.250,-0.436,261.34
34.267,-0.449,261.67
34.283,-0.357,261.99
34.300,-0.216,262.32
34.317,-0.118,262.65
34.333,-0.091,262.98
34.350,-0.147,263.30
34.367,-0.311,263.63
34.383,-0.323,263.96
34.400,-0.282,264.29
34.417,-0.195,264.62
34.433,-0.171,264.95
34.450,-0.206,265.27
34.467,-0.226,265.60
34.483,-0.243,265.93
34.500,-0.223,266.26
34.517,-0.201,266.59
34.533,-0.281,266.92
34.550,-0.397,267.25
34.567,-0.525,267.58
34.583,-0.455,267.90
34.600,-0.238,268.23
34.617,-0.071,268.56
34.633,0.050,268.89
34.650,0.036,269.22
34.667,-0.003,269.55
34.683,0.010,269.88
34.700,-0.040,270.21
34.717,-0.096,270.54
34.733,-0.202,270.87
34.750,-0.323,271.20
34.767,-0.323,271.53
34.783,-0.225,271.86
34.800,-0.053,272.19
34.817,0.040,272.52
34.833,0.034,272.85
34.850,-0.085,273.18
34.867,-0.193,273.51
34.883,-0.071,273.84
34.900,-0.054,274.17
34.917,-0.099,274.50
34.933,-0.070,274.83
34.950,0.038,275.16
34.967,0.282,275.49
34.983,0.565,275.82
35.000,0.690,276.15
35.017,0.501,276.48
35.033,0.100,276.81
35.050,-0.139,277.14
35.067,-0.039,277.47
35.083,0.230,277.81
35.100,0.520,278.14
35.117,0.256,278.47
35.133,-0.154,278.80
35.150,-0.301,279.13
35.167,-0.131,279.46
35.183,0.082,279.79
35.200,0.138,280.12
35.217,0.022,280.46
35.233,-0.149,280.79
35.250,-0.267,281.12
35.267,-0.064,281.45
35.283,0.111,281.78
35.300,0.333,282.11
35.317,0.332,282.45
35.333,0.165,282.78
35.350,0.180,283.11
35.367,0.467,283.44
35.383,0.654,283.77
35.400,0.599,284.11
35.417,0.204,284.44
35.433,-0.089,284.77
35.450,-0.097,285.10
35.467,0.108,285.44
35.483,0.236,285.77
35.500,0.245,286.10
35.517,0.257,286.43
35.533,0.264,286.77
35.550,0.294,287.10
35.567,0.337,287.43
35.583,0.311,287.76
35.600,0.400,288.10
35.617,0.399,288.43
35.633,0.364,288.76
35.650,0.349,289.10
35.667,0.342,289.43
35.683,0.323,289.76
35.700,0.260,290.09
35.717,0.165,290.43
35.733,0.096,290.76
35.750,0.222,291.09
35.767,0.376,291.43
35.783,0.475,291.76
35.800,0.479,292.10
35.817,0.407,292.43
35.833,0.291,292.76
35.850,0.186,293.10
35.867,0.076,293.43
35.883,-0.124,293.76
35.900,-0.233,294.10
35.917,-0.211,294.43
35.933,-0.151,294.77
35.950,-0.040,295.10
35.967,-0.016,295.43
35.983,-0.087,295.77
36.000,-0.250,296.10
36.017,-0.378,296.44
36.033,-0.358,296.77
36.050,-0.405,297.10
36.067,-0.331,297.44
36.083,-0.235,297.77
36.100,-0.108,298.11
36.117,-0.116,298.44
36.133,-0.207,298.78
36.150,-0.300,299.11
36.167,-0.348,299.45
36.183,-0.283,299.78
36.200,-0.123,300.12
36.217,-0.104,300.45
36.233,-0.113,300.79
36.250,-0.160,301.12
36.267,-0.156,301.46
36.283,-0.075,301.79
36.300,-0.016,302.13
36.317,-0.102,302.46
36.333,-0.115,302.80
36.350,-0.179,303.13
36.367,-0.085,303.47
36.383,-0.073,303.80
36.400,-0.143,304.14
36.417,-0.176,304.47
36.433,-0.137,304.81
36.450,0.126,305.14
36.467,0.355,305.48
36.483,0.309,305.81
36.500,0.092,306.15
36.517,-0.066,306.49
36.533,0.151,306.82
36.550,0.269,307.16
36.567,0.291,307.49
36.583,0.217,307.83
36.600,0.074,308.16
36.617,0.085,308.50
36.633,0.052,308.84
36.650,-0.031,309.17
36.667,-0.202,309.51
36.683,-0.327,309.84
36.700,-0.289,310.18
36.717,-0.285,310.52
36.733,-0.312,310.85
36.750,-0.309,311.19
36.767,-0.270,311.53
36.783,-0.223,311.86
36.800,-0.243,312.20
36.817,-0.230,312.54
36.833,-0.218,312.87
36.850,-0.248,313.21
36.867,-0.169,313.55
36.883,-0.116,313.88
36.900,-0.108,314.22
36.917,-0.170,314.56
36.933,-0.255,314.89
36.950,-0.248,315.23
36.967,-0.199,315.57
36.983,-0.143,315.90
37.000,-0.041,316.24
37.017,0.065,316.58
37.033,0.061,316.91
37.050,0.031,317.25
37.067,0.033,317.59
37.083,-0.051,317.92
37.100,-0.105,318.26
37.117,-0.119,318.60
37.133,-0.150,318.94
37.150,-0.135,319.27
37.167,-0.051,319.61
37.183,0.024,319.95
37.200,-0.009,320.29
37.217,-0.056,320.62
37.233,-0.054,320.96
37.250,-0.038,321.30
37.267,0.059,321.64
37.283,0.087,321.97
37.300,-0.019,322.31
37.317,-0.155,322.65
37.333,-0.216,322.99
37.350,-0.164,323.32
37.367,-0.043,323.66
37.383,0.022,324.00
37.400,-0.014,324.34
37.417,-0.106,324.68
37.433,-0.184,325.01
37.450,-0.199,325.35
37.467,-0.261,325.69
37.483,-0.169,326.03
37.500,-0.023,326.37
37.517,0.168,326.70
37.533,0.270,327.04
37.550,0.210,327.38
37.567,0.027,327.72
37.583,-0.065,328.06
37.600,-0.123,328.39
37.617,-0.066,328.73
37.633,-0.067,329.07
37.650,-0.040,329.41
37.667,-0.117,329.75
37.683,-0.162,330.09
37.700,-0.115,330.42
37.717,-0.059,330.76
37.733,-0.056,331.10
37.750,-0.104,331.44
37.767,-0.214,331.78
37.783,-0.247,332.12
37.800,-0.257,332.46
37.817,-0.272,332.80
37.833,-0.315,333.13
37.850,-0.327,333.47
37.867,-0.230,333.81
37.883,-0.159,334.15
37.900,-0.111,334.49
37.917,0.022,334.83
37.933,0.218,335.17
37.950,0.373,335.51
37.967,0.332,335.84
37.983,0.198,336.18
38.000,0.090,336.52
38.017,0.129,336.86
38.033,0.262,337.20
38.050,0.253,337.54
38.067,0.067,337.88
38.083,0.042,338.22
38.100,0.013,338.56
38.117,0.093,338.90
38.133,0.115,339.24
38.150,0.128,339.58
38.167,0.027,339.92
38.183,-0.033,340.25
38.200,0.000,340.59
38.217,-0.049,340.93
38.233,-0.050,341.27
38.250,0.017,341.61
38.267,0.029,341.95
38.283,0.085,342.29
38.300,0.076,342.63
38.317,0.016,342.97
38.333,-0.092,343.31
38.350,-0.067,343.65
38.367,-0.062,343.99
38.383,-0.080,344.33
38.400,-0.048,344.67
38.417,-0.133,345.01
38.433,0.095,345.35
38.450,0.420,345.69
38.467,0.659,346.03
38.483,0.617,346.37
38.500,0.396,346.71
38.517,0.093,347.05
38.533,-0.155,347.39
38.550,-0.259,347.73
38.567,-0.209,348.07
38.583,-0.164,348.41
38.600,0.031,348.75
38.617,0.140,349.09
38.633,0.285,349.43
38.650,0.281,349.77
38.667,0.145,350.11
38.683,-0.046,350.45
38.700,-0.129,350.79
38.717,-0.188,351.13
38.733,-0.096,351.47
38.750,-0.126,351.81
38.767,-0.097,352.15
38.783,-0.031,352.49
38.800,0.159,352.83
38.817,0.255,353.17
38.833,0.206,353.51
38.850,0.021,353.85
38.867,-0.140,354.19
38.883,-0.205,354.53
38.900,-0.101,354.87
38.917,-0.032,355.21
38.933,0.050,355.55
38.950,0.008,355.89
38.967,-0.037,356.23
38.983,-0.022,356.57
39.000,-0.032,356.91
39.017,-0.117,357.25
39.033,-0.187,357.60
39.050,-0.192,357.94
39.067,-0.056,358.28
39.083,0.019,358.62
39.100,-0.017,358.96
39.117,-0.166,359.30
39.133,-0.209,359.64
39.150,-0.158,359.98
39.167,-0.084,360.32
39.183,-0.022,360.66
39.200,-0.023,361.00
39.217,-0.096,361.34
39.233,-0.115,361.68
39.250,-0.248,362.02
39.267,-0.156,362.37
39.283,-0.210,362.71
39.300,0.005,363.05
39.317,0.416,363.39
39.333,0.806,363.73
39.350,0.826,364.07
39.367,0.458,364.41
39.383,-0.106,364.75
39.400,-0.417,365.09
39.417,-0.340,365.43
39.433,0.193,365.78
39.450,0.346,366.12
39.467,0.340,366.46
39.483,0.160,366.80
39.500,-0.006,367.14
39.517,-0.119,367.48
39.533,-0.110,367.82
39.550,-0.165,368.16
39.567,-0.309,368.50
39.583,-0.366,368.85
39.600,-0.256,369.19
39.617,-0.138,369.53
39.633,-0.010,369.87
39.650,-0.026,370.21
39.667,-0.088,370.55
39.683,-0.143,370.89
39.700,-0.148,371.23
39.717,-0.121,371.57
39.733,-0.185,371.92
39.750,-0.167,372.26
39.767,-0.173,372.60
39.783,-0.126,372.94
39.800,-0.156,373.28
39.817,-0.265,373.62
39.833,-0.255,373.96
39.850,-0.169,374.31
39.867,-0.131,374.65
39.883,-0.146,374.99
39.900,-0.189,375.33
39.917,-0.176,375.67
39.933,-0.091,376.01
39.950,0.011,376.35
39.967,-0.099,376.70
39.983,-0.252,377.04
40.000,-0.256,377.38
40.017,-0.123,377.72
40.033,0.032,378.06
40.050,0.089,378.40
40.067,-0.019,378.74
40.083,-0.247,379.09
40.100,-0.421,379.43
40.117,-0.467,379.77
40.133,-0.391,380.11
40.150,-0.356,380.45
40.167,-0.248,380.79
40.183,-0.124,381.14
40.200,-0.005,381.48
40.217,0.066,381.82
40.233,0.049,382.16
40.250,0.047,382.50
40.267,0.241,382.84
40.283,0.607,383.19
40.300,0.887,383.53
40.317,0.795,383.87
40.333,0.451,384.21
40.350,0.119,384.55
40.367,-0.009,384.89
40.383,0.108,385.24
40.400,0.217,385.58
40.417,0.112,385.92
40.433,0.034,386.26
40.450,-0.014,386.60
40.467,-0.033,386.94
40.483,-0.065,387.29
40.500,-0.189,387.63
40.517,-0.302,387.97
40.533,-0.378,388.31
40.550,-0.295,388.65
40.567,-0.196,389.00
40.583,-0.241,389.34
40.600,-0.274,389.68
40.617,-0.329,390.02
40.633,-0.291,390.36
40.650,-0.197,390.70
40.667,-0.134,391.05
40.683,-0.173,391.39
40.700,-0.250,391.73
40.717,-0.274,392.07
40.733,-0.176,392.41
40.750,-0.066,392.76
40.767,0.092,393.10
40.783,0.296,393.44
40.800,0.535,393.78
40.817,0.694,394.12
40.833,0.722,394.47
40.850,0.730,394.81
40.867,0.779,395.15
40.883,0.823,395.49
40.900,0.928,395.83
40.917,0.855,396.17
40.933,0.736,396.52
40.950,0.627,396.86
40.967,0.559,397.20
40.983,0.692,397.54
41.000,0.585,397.88
41.017,0.352,398.23
41.033,0.555,398.57
41.050,1.021,398.91
41.067,1.430,399.25
41.083,1.326,399.59
41.100,0.776,399.94
41.117,0.122,400.28
41.133,-0.224,400.62
41.150,-0.057,400.96
41.167,0.025,401.30
41.183,-0.081,401.65
41.200,-0.049,401.99
41.217,-0.152,402.33
41.233,-0.182,402.67
41.250,-0.147,403.01
41.267,0.008,403.36
41.283,0.094,403.70
41.300,-0.024,404.04
41.317,-0.202,404.38
41.333,-0.346,404.72
41.350,-0.369,405.07
41.367,-0.282,405.41
41.383,-0.252,405.75
41.400,-0.247,406.09
41.417,-0.292,406.43
41.433,-0.296,406.78
41.450,-0.323,407.12
41.467,-0.378,407.46
41.483,-0.327,407.80
41.500,-0.331,408.14
41.517,-0.382,408.49
41.533,-0.425,408.83
41.550,-0.424,409.17
41.567,-0.435,409.51
41.583,-0.354,409.85
41.600,-0.340,410.20
41.617,-0.362,410.54
41.633,-0.428,410.88
41.650,-0.380,411.22
