VERSION=1.3
ExportFileName=PM SC 16_2025-05-14_13-24-16_labchip_PURE_Data_E8
SampleLabel=E8
SampleName=PM SC 16
SampleComment=
SampleAreaConcRatio=0.013720
SampleLowerMarkerTime=12.13
SampleUpperMarkerTime=-1.00
SamplePeakTimes=11.15,11.75,12.13,15.10,15.47,16.13,17.15,17.47,17.73,18.12,18.27,18.37,18.57,18.87,19.17,19.55,19.88,20.47,20.82,21.20,22.05,22.65,22.97,23.37,23.60,25.18,25.75,26.37
SamplePeakSizes=0.620,1.036,1.393,7.738,9.080,11.893,17.153,19.040,20.721,23.288,24.341,25.058,26.528,28.825,31.230,34.461,37.414,42.897,46.378,50.353,59.753,66.862,70.766,75.843,78.879,100.834,109.230,118.663
SamplePeakQuantities=,,,,,1.6102,9.3724,2.3606,4.6754,67.0004,72.0014,85.3565,16.8039,11.4648,6.7877,27.7918,206.1707,212.6224,276.0610,117.0477,192.2356,142.9966,15.4382,3.7715,20.5325,73.9239,50.1985,5.0061
PlateFileName=2025-05-14_13-24-16_labchip_PURE
PlateAssayName=HT Protein Express 200
PlateBarCode=N/A
WellAquisitionTime=5/14/2025 2:23:17 PM 
PlateDataFrequency=60
PlateDataStartTime=11.00
PlateDataEndTime=42.00
PlateConcUnits=ng/ul
PlateSizeUnits=kDa
PlateLadderSizes=1.40,15.90,20.40,28.90,48.40,68.40,119.20
ChipID=H296P-0563N-03
Operator=ACJS
DATA
Time,Value,Size
0.000,53.632,0.00
0.017,53.764,0.00
0.033,53.586,0.00
0.050,53.442,0.00
0.067,53.396,0.00
0.083,53.403,0.00
0.100,53.452,0.00
0.117,53.532,0.00
0.133,53.616,0.00
0.150,53.636,0.00
0.167,53.545,0.00
0.183,53.364,0.00
0.200,53.357,0.00
0.217,53.486,0.00
0.233,53.520,0.00
0.250,53.227,0.00
0.267,52.573,0.00
0.283,51.780,0.00
0.300,51.111,0.00
0.317,50.698,0.00
0.333,50.271,0.00
0.350,49.654,0.00
0.367,48.891,0.00
0.383,48.028,0.00
0.400,47.141,0.00
0.417,46.295,0.00
0.433,45.362,0.00
0.450,44.359,0.00
0.467,43.335,0.00
0.483,42.325,0.00
0.500,41.346,0.00
0.517,40.362,0.00
0.533,39.437,0.00
0.550,38.519,0.00
0.567,37.674,0.00
0.583,36.859,0.00
0.600,36.059,0.00
0.617,35.278,0.00
0.633,34.551,0.00
0.650,33.843,0.00
0.667,33.259,0.00
0.683,32.641,0.00
0.700,32.024,0.00
0.717,31.474,0.00
0.733,30.975,0.00
0.750,30.494,0.00
0.767,30.008,0.00
0.783,29.502,0.00
0.800,28.980,0.00
0.817,28.484,0.00
0.833,28.123,0.00
0.850,27.795,0.00
0.867,27.407,0.00
0.883,27.040,0.00
0.900,26.604,0.00
0.917,26.205,0.00
0.933,25.916,0.00
0.950,25.598,0.00
0.967,25.278,0.00
0.983,24.861,0.00
1.000,24.535,0.00
1.017,24.257,0.00
1.033,24.044,0.00
1.050,23.855,0.00
1.067,23.550,0.00
1.083,23.251,0.00
1.100,23.000,0.00
1.117,22.775,0.00
1.133,22.634,0.00
1.150,22.424,0.00
1.167,22.199,0.00
1.183,21.918,0.00
1.200,21.721,0.00
1.217,21.578,0.00
1.233,21.443,0.00
1.250,21.306,0.00
1.267,21.139,0.00
1.283,20.938,0.00
1.300,20.752,0.00
1.317,20.555,0.00
1.333,20.370,0.00
1.350,20.261,0.00
1.367,20.221,0.00
1.383,20.110,0.00
1.400,19.931,0.00
1.417,19.741,0.00
1.433,19.617,0.00
1.450,19.509,0.00
1.467,19.430,0.00
1.483,19.311,0.00
1.500,19.153,0.00
1.517,18.972,0.00
1.533,18.881,0.00
1.550,18.743,0.00
1.567,18.624,0.00
1.583,18.496,0.00
1.600,18.343,0.00
1.617,18.192,0.00
1.633,18.076,0.00
1.650,17.998,0.00
1.667,17.882,0.00
1.683,17.668,0.00
1.700,17.459,0.00
1.717,17.300,0.00
1.733,17.226,0.00
1.750,17.183,0.00
1.767,17.103,0.00
1.783,16.997,0.00
1.800,16.836,0.00
1.817,16.709,0.00
1.833,16.586,0.00
1.850,16.457,0.00
1.867,16.334,0.00
1.883,16.245,0.00
1.900,16.135,0.00
1.917,16.022,0.00
1.933,15.920,0.00
1.950,15.835,0.00
1.967,15.760,0.00
1.983,15.658,0.00
2.000,15.531,0.00
2.017,15.444,0.00
2.033,15.359,0.00
2.050,15.239,0.00
2.067,15.123,0.00
2.083,15.028,0.00
2.100,14.977,0.00
2.117,14.961,0.00
2.133,14.935,0.00
2.150,14.813,0.00
2.167,14.676,0.00
2.183,14.615,0.00
2.200,14.573,0.00
2.217,14.515,0.00
2.233,14.486,0.00
2.250,14.443,0.00
2.267,14.390,0.00
2.283,14.295,0.00
2.300,14.147,0.00
2.317,13.988,0.00
2.333,13.868,0.00
2.350,13.807,0.00
2.367,13.758,0.00
2.383,13.682,0.00
2.400,13.571,0.00
2.417,13.430,0.00
2.433,13.319,0.00
2.450,13.261,0.00
2.467,13.228,0.00
2.483,13.185,0.00
2.500,13.118,0.00
2.517,13.062,0.00
2.533,13.029,0.00
2.550,12.987,0.00
2.567,12.931,0.00
2.583,12.844,0.00
2.600,12.745,0.00
2.617,12.660,0.00
2.633,12.540,0.00
2.650,12.393,0.00
2.667,12.279,0.00
2.683,12.189,0.00
2.700,12.119,0.00
2.717,12.056,0.00
2.733,11.982,0.00
2.750,11.889,0.00
2.767,11.814,0.00
2.783,11.771,0.00
2.800,11.716,0.00
2.817,11.659,0.00
2.833,11.587,0.00
2.850,11.458,0.00
2.867,11.348,0.00
2.883,11.322,0.00
2.900,11.311,0.00
2.917,11.272,0.00
2.933,11.207,0.00
2.950,11.126,0.00
2.967,11.074,0.00
2.983,11.015,0.00
3.000,10.919,0.00
3.017,10.825,0.00
3.033,10.730,0.00
3.050,10.667,0.00
3.067,10.636,0.00
3.083,10.599,0.00
3.100,10.519,0.00
3.117,10.374,0.00
3.133,10.258,0.00
3.150,10.168,0.00
3.167,10.094,0.00
3.183,10.074,0.00
3.200,10.008,0.00
3.217,9.875,0.00
3.233,9.752,0.00
3.250,9.663,0.00
3.267,9.621,0.00
3.283,9.546,0.00
3.300,9.489,0.00
3.317,9.459,0.00
3.333,9.409,0.00
3.350,9.358,0.00
3.367,9.191,0.00
3.383,8.803,0.00
3.400,8.229,0.00
3.417,7.574,0.00
3.433,7.005,0.00
3.450,6.550,0.00
3.467,6.219,0.00
3.483,5.905,0.00
3.500,5.562,0.00
3.517,5.255,0.00
3.533,5.008,0.00
3.550,4.837,0.00
3.567,4.687,0.00
3.583,4.576,0.00
3.600,4.524,0.00
3.617,4.511,0.00
3.633,4.515,0.00
3.650,4.494,0.00
3.667,4.432,0.00
3.683,4.331,0.00
3.700,4.177,0.00
3.717,4.097,0.00
3.733,4.036,0.00
3.750,4.046,0.00
3.767,4.085,0.00
3.783,4.046,0.00
3.800,3.959,0.00
3.817,3.897,0.00
3.833,3.898,0.00
3.850,3.942,0.00
3.867,3.971,0.00
3.883,3.985,0.00
3.900,3.910,0.00
3.917,3.863,0.00
3.933,3.854,0.00
3.950,3.836,0.00
3.967,3.813,0.00
3.983,3.809,0.00
4.000,3.756,0.00
4.017,3.741,0.00
4.033,3.753,0.00
4.050,3.760,0.00
4.067,3.756,0.00
4.083,3.801,0.00
4.100,3.791,0.00
4.117,3.724,0.00
4.133,3.650,0.00
4.150,3.584,0.00
4.167,3.502,0.00
4.183,3.518,0.00
4.200,3.538,0.00
4.217,3.535,0.00
4.233,3.452,0.00
4.250,3.364,0.00
4.267,3.296,0.00
4.283,3.281,0.00
4.300,3.256,0.00
4.317,3.193,0.00
4.333,3.125,0.00
4.350,3.082,0.00
4.367,3.039,0.00
4.383,2.973,0.00
4.400,2.869,0.00
4.417,2.760,0.00
4.433,2.726,0.00
4.450,2.766,0.00
4.467,2.782,0.00
4.483,2.764,0.00
4.500,2.729,0.00
4.517,2.684,0.00
4.533,2.678,0.00
4.550,2.682,0.00
4.567,2.652,0.00
4.583,2.658,0.00
4.600,2.661,0.00
4.617,2.732,0.00
4.633,2.805,0.00
4.650,2.869,0.00
4.667,2.849,0.00
4.683,2.811,0.00
4.700,2.831,0.00
4.717,2.834,0.00
4.733,2.812,0.00
4.750,2.917,0.00
4.767,2.998,0.00
4.783,3.132,0.00
4.800,3.285,0.00
4.817,3.393,0.00
4.833,3.447,0.00
4.850,3.582,0.00
4.867,3.762,0.00
4.883,3.947,0.00
4.900,4.179,0.00
4.917,4.485,0.00
4.933,4.793,0.00
4.950,5.083,0.00
4.967,5.313,0.00
4.983,5.473,0.00
5.000,5.623,0.00
5.017,5.888,0.00
5.033,6.187,0.00
5.050,6.463,0.00
5.067,6.635,0.00
5.083,6.754,0.00
5.100,6.923,0.00
5.117,7.150,0.00
5.133,7.458,0.00
5.150,7.752,0.00
5.167,7.918,0.00
5.183,7.997,0.00
5.200,8.090,0.00
5.217,8.227,0.00
5.233,8.332,0.00
5.250,8.399,0.00
5.267,8.394,0.00
5.283,8.336,0.00
5.300,8.289,0.00
5.317,8.289,0.00
5.333,8.297,0.00
5.350,8.282,0.00
5.367,8.301,0.00
5.383,8.327,0.00
5.400,8.264,0.00
5.417,8.283,0.00
5.433,8.320,0.00
5.450,8.263,0.00
5.467,7.983,0.00
5.483,7.513,0.00
5.500,7.009,0.00
5.517,6.643,0.00
5.533,6.554,0.00
5.550,6.610,0.00
5.567,6.594,0.00
5.583,6.637,0.00
5.600,6.719,0.00
5.617,6.864,0.00
5.633,7.006,0.00
5.650,7.091,0.00
5.667,7.111,0.00
5.683,7.127,0.00
5.700,7.254,0.00
5.717,7.377,0.00
5.733,7.402,0.00
5.750,7.400,0.00
5.767,7.385,0.00
5.783,7.394,0.00
5.800,7.456,0.00
5.817,7.425,0.00
5.833,7.275,0.00
5.850,7.084,0.00
5.867,6.964,0.00
5.883,6.934,0.00
5.900,6.979,0.00
5.917,7.007,0.00
5.933,6.979,0.00
5.950,6.943,0.00
5.967,6.918,0.00
5.983,6.835,0.00
6.000,6.742,0.00
6.017,6.642,0.00
6.033,6.532,0.00
6.050,6.453,0.00
6.067,6.441,0.00
6.083,6.377,0.00
6.100,6.311,0.00
6.117,6.324,0.00
6.133,6.436,0.00
6.150,6.577,0.00
6.167,6.664,0.00
6.183,6.651,0.00
6.200,6.497,0.00
6.217,6.303,0.00
6.233,6.158,0.00
6.250,6.036,0.00
6.267,5.958,0.00
6.283,5.888,0.00
6.300,5.780,0.00
6.317,5.685,0.00
6.333,5.633,0.00
6.350,5.593,0.00
6.367,5.516,0.00
6.383,5.399,0.00
6.400,5.236,0.00
6.417,5.070,0.00
6.433,4.984,0.00
6.450,4.912,0.00
6.467,4.780,0.00
6.483,4.650,0.00
6.500,4.548,0.00
6.517,4.430,0.00
6.533,4.341,0.00
6.550,4.273,0.00
6.567,3.953,0.00
6.583,1.223,0.00
6.600,9.169,0.00
6.617,19.622,0.00
6.633,-2.007,0.00
6.650,-24.515,0.00
6.667,67.932,0.00
6.683,345.218,0.00
6.700,864.651,0.00
6.717,1625.773,0.00
6.733,2413.329,0.00
6.750,2986.099,0.00
6.767,3251.170,0.00
6.783,3262.881,0.00
6.800,3146.487,0.00
6.817,3052.476,0.00
6.833,3041.135,0.00
6.850,3034.340,0.00
6.867,3003.647,0.00
6.883,3000.843,0.00
6.900,3001.599,0.00
6.917,3003.968,0.00
6.933,3006.118,0.00
6.950,3007.693,0.00
6.967,3008.080,0.00
6.983,3008.289,0.00
7.000,3008.808,0.00
7.017,3010.036,0.00
7.033,3012.267,0.00
7.050,3015.306,0.00
7.067,3018.860,0.00
7.083,3021.648,0.00
7.100,3022.968,0.00
7.117,3023.083,0.00
7.133,3023.019,0.00
7.150,3022.854,0.00
7.167,3022.859,0.00
7.183,3022.579,0.00
7.200,3021.356,0.00
7.217,3019.421,0.00
7.233,3017.928,0.00
7.250,3017.045,0.00
7.267,3015.926,0.00
7.283,3014.562,0.00
7.300,3013.974,0.00
7.317,3014.033,0.00
7.333,3014.115,0.00
7.350,3012.865,0.00
7.367,3009.589,0.00
7.383,3005.442,0.00
7.400,3001.135,0.00
7.417,2996.212,0.00
7.433,2990.354,0.00
7.450,2984.495,0.00
7.467,2977.699,0.00
7.483,2970.987,0.00
7.500,2964.335,0.00
7.517,2957.390,0.00
7.533,2950.467,0.00
7.550,2943.935,0.00
7.567,2937.595,0.00
7.583,2930.338,0.00
7.600,2923.491,0.00
7.617,2917.181,0.00
7.633,2910.238,0.00
7.650,2903.853,0.00
7.667,2896.577,0.00
7.683,2889.490,0.00
7.700,2883.247,0.00
7.717,2876.651,0.00
7.733,2871.246,0.00
7.750,2864.871,0.00
7.767,2859.535,0.00
7.783,2853.795,0.00
7.800,2847.868,0.00
7.817,2841.719,0.00
7.833,2834.792,0.00
7.850,2828.086,0.00
7.867,2822.326,0.00
7.883,2817.347,0.00
7.900,2812.961,0.00
7.917,2807.130,0.00
7.933,2801.076,0.00
7.950,2794.361,0.00
7.967,2787.523,0.00
7.983,2782.204,0.00
8.000,2778.009,0.00
8.017,2774.179,0.00
8.033,2769.058,0.00
8.050,2762.844,0.00
8.067,2756.321,0.00
8.083,2750.078,0.00
8.100,2745.687,0.00
8.117,2741.872,0.00
8.133,2736.594,0.00
8.150,2730.703,0.00
8.167,2725.454,0.00
8.183,2721.862,0.00
8.200,2717.929,0.00
8.217,2713.578,0.00
8.233,2707.986,0.00
8.250,2701.756,0.00
8.267,2697.519,0.00
8.283,2693.923,0.00
8.300,2689.283,0.00
8.317,2684.027,0.00
8.333,2678.015,0.00
8.350,2673.366,0.00
8.367,2670.597,0.00
8.383,2668.533,0.00
8.400,2665.623,0.00
8.417,2661.723,0.00
8.433,2658.338,0.00
8.450,2655.695,0.00
8.467,2653.435,0.00
8.483,2652.069,0.00
8.500,2649.973,0.00
8.517,2649.246,0.00
8.533,2649.029,0.00
8.550,2649.998,0.00
8.567,2650.230,0.00
8.583,2649.033,0.00
8.600,2649.292,0.00
8.617,2650.901,0.00
8.633,2652.970,0.00
8.650,2654.664,0.00
8.667,2655.151,0.00
8.683,2655.800,0.00
8.700,2656.484,0.00
8.717,2658.699,0.00
8.733,2660.344,0.00
8.750,2660.347,0.00
8.767,2659.595,0.00
8.783,2658.587,0.00
8.800,2657.515,0.00
8.817,2656.956,0.00
8.833,2656.694,0.00
8.850,2656.236,0.00
8.867,2655.583,0.00
8.883,2654.202,0.00
8.900,2652.806,0.00
8.917,2650.822,0.00
8.933,2648.290,0.00
8.950,2646.043,0.00
8.967,2642.994,0.00
8.983,2638.327,0.00
9.000,2632.809,0.00
9.017,2627.987,0.00
9.033,2623.895,0.00
9.050,2619.342,0.00
9.067,2613.342,0.00
9.083,2606.665,0.00
9.100,2600.020,0.00
9.117,2594.266,0.00
9.133,2588.421,0.00
9.150,2581.773,0.00
9.167,2574.002,0.00
9.183,2565.552,0.00
9.200,2561.701,0.00
9.217,2553.338,0.00
9.233,2537.824,0.00
9.250,2529.979,0.00
9.267,2539.801,0.00
9.283,2585.817,0.00
9.300,2666.262,0.00
9.317,2753.377,0.00
9.333,2813.470,0.00
9.350,2833.349,0.00
9.367,2826.710,0.00
9.383,2808.048,0.00
9.400,2793.510,0.00
9.417,2788.011,0.00
9.433,2780.673,0.00
9.450,2772.651,0.00
9.467,2764.129,0.00
9.483,2754.401,0.00
9.500,2744.215,0.00
9.517,2735.056,0.00
9.533,2726.598,0.00
9.550,2720.265,0.00
9.567,2712.879,0.00
9.583,2703.491,0.00
9.600,2696.388,0.00
9.617,2694.571,0.00
9.633,2705.414,0.00
9.650,2729.907,0.00
9.667,2755.424,0.00
9.683,2771.891,0.00
9.700,2766.856,0.00
9.717,2744.593,0.00
9.733,2727.256,0.00
9.750,2735.349,0.00
9.767,2785.618,0.00
9.783,2872.605,0.00
9.800,2974.079,0.00
9.817,3032.218,0.00
9.833,3064.286,0.00
9.850,3108.962,0.00
9.867,3122.525,0.00
9.883,3038.969,0.00
9.900,2768.092,0.00
9.917,2312.688,0.00
9.933,1786.953,0.00
9.950,1313.877,0.00
9.967,946.174,0.00
9.983,648.539,0.00
10.000,417.742,0.00
10.017,259.047,0.00
10.033,158.937,0.00
10.050,110.829,0.00
10.067,69.798,0.00
10.083,29.158,0.00
10.100,3.639,0.00
10.117,-8.453,0.00
10.133,-9.986,0.00
10.150,-8.151,0.00
10.167,-6.443,0.00
10.183,-4.505,0.00
10.200,-2.526,0.00
10.217,-0.976,0.00
10.233,0.202,0.00
10.250,0.992,0.00
10.267,1.531,0.00
10.283,1.904,0.00
10.300,2.178,0.00
10.317,2.439,0.00
10.333,2.731,0.00
10.350,3.053,0.00
10.367,3.464,0.00
10.383,4.024,0.00
10.400,4.500,0.00
10.417,4.600,0.00
10.433,4.269,0.00
10.450,3.609,0.00
10.467,2.960,0.00
10.483,2.635,0.00
10.500,2.520,0.00
10.517,2.387,0.00
10.533,2.237,0.00
10.550,2.209,0.00
10.567,2.258,0.00
10.583,2.320,0.00
10.600,2.411,0.00
10.617,2.408,0.00
10.633,2.370,0.00
10.650,2.438,0.00
10.667,2.504,0.00
10.683,2.507,0.00
10.700,2.493,0.00
10.717,2.513,0.00
10.733,2.573,0.00
10.750,2.687,0.00
10.767,2.827,0.00
10.783,2.820,0.00
10.800,2.712,0.00
10.817,2.661,0.00
10.833,2.657,0.00
10.850,2.727,0.00
10.867,2.872,0.00
10.883,3.011,0.00
10.900,3.120,0.00
10.917,3.173,0.00
10.933,3.176,0.00
10.950,3.174,0.00
10.967,3.201,0.00
10.983,3.250,0.00
11.000,3.251,0.00
11.017,3.456,0.00
11.033,4.000,0.00
11.050,4.562,0.00
11.067,4.848,0.00
11.083,4.661,0.00
11.100,4.275,0.00
11.117,4.206,0.00
11.133,4.463,0.00
11.150,4.600,0.00
11.167,5.879,0.00
11.183,9.955,0.00
11.200,15.106,0.00
11.217,17.776,0.00
11.233,16.113,0.00
11.250,11.076,0.00
11.267,5.970,0.00
11.283,3.638,0.00
11.300,3.841,0.00
11.317,4.082,0.00
11.333,3.793,0.00
11.350,3.714,0.00
11.367,3.774,0.00
11.383,3.771,0.00
11.400,3.871,0.00
11.417,4.049,0.00
11.433,4.240,0.00
11.450,4.336,0.00
11.467,4.823,0.00
11.483,5.464,0.00
11.500,5.603,0.00
11.517,4.761,0.00
11.533,3.350,0.00
11.550,1.913,0.00
11.567,1.241,0.00
11.583,1.268,0.00
11.600,1.488,0.00
11.617,1.432,0.00
11.633,1.440,0.00
11.650,1.489,0.00
11.667,1.516,0.00
11.683,1.428,0.00
11.700,1.410,0.00
11.717,1.652,0.00
11.733,1.774,0.00
11.750,0.969,0.00
11.767,3.255,0.00
11.783,8.120,0.00
11.800,12.166,0.00
11.817,12.576,0.00
11.833,9.139,0.00
11.850,4.030,0.00
11.867,0.597,0.00
11.883,0.593,0.00
11.900,1.492,0.00
11.917,0.720,0.00
11.933,0.729,0.00
11.950,0.898,0.00
11.967,1.020,0.00
11.983,1.055,0.00
12.000,1.032,0.00
12.017,0.880,0.00
12.033,0.623,0.00
12.050,0.644,0.00
12.067,1.774,0.00
12.083,4.935,0.00
12.100,7.220,0.00
12.117,3.300,0.00
12.133,25.820,0.00
12.150,183.566,0.00
12.167,543.645,0.00
12.183,970.154,0.00
12.200,1197.415,0.00
12.217,1065.565,1.41
12.233,662.224,1.43
12.250,241.684,1.45
12.267,13.396,1.46
12.283,-19.893,1.48
12.300,5.500,1.50
12.317,8.908,1.52
12.333,2.010,1.54
12.350,0.175,1.55
12.367,0.462,1.57
12.383,0.846,1.59
12.400,1.063,1.61
12.417,1.209,1.63
12.433,1.394,1.65
12.450,1.413,1.67
12.467,1.333,1.69
12.483,1.109,1.71
12.500,0.760,1.73
12.517,0.459,1.75
12.533,0.241,1.77
12.550,0.069,1.79
12.567,-0.087,1.81
12.583,-0.110,1.83
12.600,-0.115,1.85
12.617,-0.103,1.88
12.633,-0.029,1.90
12.650,-0.081,1.92
12.667,-0.184,1.94
12.683,-0.185,1.96
12.700,-0.169,1.98
12.717,-0.181,2.01
12.733,-0.242,2.03
12.750,-0.309,2.05
12.767,-0.287,2.08
12.783,-0.244,2.10
12.800,-0.178,2.12
12.817,-0.172,2.14
12.833,-0.229,2.17
12.850,-0.279,2.19
12.867,-0.218,2.22
12.883,-0.237,2.24
12.900,-0.237,2.27
12.917,-0.164,2.29
12.933,-0.033,2.31
12.950,-0.201,2.34
12.967,-0.254,2.37
12.983,-0.069,2.39
13.000,0.187,2.42
13.017,0.315,2.44
13.033,0.276,2.47
13.050,-0.111,2.49
13.067,-0.388,2.52
13.083,-0.368,2.55
13.100,-0.158,2.57
13.117,-0.188,2.60
13.133,-0.288,2.63
13.150,-0.353,2.66
13.167,-0.312,2.68
13.183,-0.202,2.71
13.200,-0.105,2.74
13.217,-0.129,2.77
13.233,-0.212,2.80
13.250,-0.267,2.82
13.267,-0.253,2.85
13.283,-0.204,2.88
13.300,-0.189,2.91
13.317,-0.191,2.94
13.333,-0.140,2.97
13.350,-0.321,3.00
13.367,-0.548,3.03
13.383,-0.388,3.06
13.400,0.173,3.09
13.417,0.743,3.12
13.433,0.930,3.15
13.450,0.614,3.18
13.467,0.050,3.22
13.483,-0.284,3.25
13.500,-0.217,3.28
13.517,-0.170,3.31
13.533,-0.195,3.34
13.550,-0.120,3.38
13.567,-0.049,3.41
13.583,-0.020,3.44
13.600,-0.014,3.48
13.617,-0.041,3.51
13.633,0.059,3.54
13.650,0.357,3.58
13.667,0.553,3.61
13.683,0.505,3.64
13.700,0.295,3.68
13.717,0.080,3.71
13.733,-0.082,3.75
13.750,-0.126,3.78
13.767,-0.095,3.82
13.783,-0.127,3.86
13.800,-0.127,3.89
13.817,-0.068,3.93
13.833,-0.067,3.96
13.850,-0.051,4.00
13.867,-0.014,4.04
13.883,0.033,4.07
13.900,0.042,4.11
13.917,-0.019,4.15
13.933,-0.107,4.19
13.950,-0.221,4.23
13.967,-0.257,4.26
13.983,-0.174,4.30
14.000,-0.078,4.34
14.017,0.017,4.38
14.033,0.039,4.42
14.050,-0.072,4.46
14.067,-0.209,4.50
14.083,-0.259,4.54
14.100,-0.209,4.58
14.117,-0.114,4.62
14.133,-0.015,4.66
14.150,0.064,4.70
14.167,0.087,4.74
14.183,0.048,4.78
14.200,-0.058,4.82
14.217,-0.212,4.87
14.233,-0.293,4.91
14.250,-0.293,4.95
14.267,-0.283,4.99
14.283,-0.283,5.04
14.300,-0.278,5.08
14.317,-0.243,5.12
14.333,-0.215,5.17
14.350,-0.159,5.21
14.367,-0.142,5.26
14.383,-0.105,5.30
14.400,0.036,5.35
14.417,0.103,5.39
14.433,0.372,5.44
14.450,0.730,5.48
14.467,0.910,5.53
14.483,0.744,5.57
14.500,0.385,5.62
14.517,0.129,5.67
14.533,0.175,5.71
14.550,0.563,5.76
14.567,1.232,5.81
14.583,2.212,5.85
14.600,3.516,5.90
14.617,4.341,5.95
14.633,4.387,6.00
14.650,3.815,6.05
14.667,2.986,6.10
14.683,2.229,6.15
14.700,1.644,6.20
14.717,1.083,6.25
14.733,0.474,6.30
14.750,0.185,6.35
14.767,0.132,6.40
14.783,0.056,6.45
14.800,0.037,6.50
14.817,0.198,6.55
14.833,0.530,6.60
14.850,1.143,6.65
14.867,1.989,6.71
14.883,2.980,6.76
14.900,4.124,6.81
14.917,5.243,6.86
14.933,6.119,6.92
14.950,6.612,6.97
14.967,6.758,7.02
14.983,6.680,7.08
15.000,6.505,7.13
15.017,6.291,7.19
15.033,6.035,7.24
15.050,5.669,7.30
15.067,5.670,7.35
15.083,6.177,7.41
15.100,7.035,7.46
15.117,8.231,7.52
15.133,9.793,7.58
15.150,11.674,7.63
15.167,13.437,7.69
15.183,14.303,7.75
15.200,13.697,7.81
15.217,11.603,7.87
15.233,8.970,7.92
15.250,6.831,7.98
15.267,5.529,8.04
15.283,5.006,8.10
15.300,5.082,8.16
15.317,5.531,8.22
15.333,6.180,8.28
15.350,6.893,8.34
15.367,7.453,8.40
15.383,7.852,8.46
15.400,8.060,8.52
15.417,8.612,8.58
15.433,10.346,8.65
15.450,13.677,8.71
15.467,18.038,8.77
15.483,25.274,8.83
15.500,37.371,8.90
15.517,53.063,8.96
15.533,67.048,9.02
15.550,73.075,9.09
15.567,67.967,9.15
15.583,54.277,9.22
15.600,38.421,9.28
15.617,25.088,9.35
15.633,14.662,9.41
15.650,7.214,9.48
15.667,1.956,9.54
15.683,-1.107,9.61
15.700,-2.421,9.67
15.717,-2.478,9.74
15.733,-1.904,9.81
15.750,-1.533,9.88
15.767,-1.817,9.94
15.783,-2.592,10.01
15.800,-3.383,10.08
15.817,-3.860,10.15
15.833,-4.089,10.22
15.850,-3.798,10.29
15.867,-3.428,10.36
15.883,-3.266,10.43
15.900,-3.341,10.50
15.917,-3.427,10.57
15.933,-3.479,10.64
15.950,-2.888,10.71
15.967,-1.855,10.78
15.983,-0.888,10.85
16.000,-0.308,10.92
16.017,0.014,11.00
16.033,0.493,11.07
16.050,0.834,11.14
16.067,1.046,11.21
16.083,1.080,11.29
16.100,0.976,11.36
16.117,1.366,11.44
16.133,2.423,11.51
16.150,4.039,11.59
16.167,5.933,11.66
16.183,8.381,11.74
16.200,11.134,11.81
16.217,12.598,11.89
16.233,11.747,11.96
16.250,8.522,12.04
16.267,4.560,12.12
16.283,0.893,12.19
16.300,-0.438,12.27
16.317,0.237,12.35
16.333,1.189,12.43
16.350,1.472,12.51
16.367,0.991,12.59
16.383,0.280,12.66
16.400,-0.067,12.74
16.417,0.344,12.82
16.433,1.320,12.90
16.450,1.689,12.98
16.467,2.078,13.06
16.483,2.291,13.15
16.500,2.000,13.23
16.517,1.327,13.31
16.533,0.565,13.39
16.550,-0.038,13.47
16.567,-0.455,13.56
16.583,-0.431,13.64
16.600,0.106,13.72
16.617,1.035,13.80
16.633,2.282,13.89
16.650,3.762,13.97
16.667,5.140,14.06
16.683,6.165,14.14
16.700,6.526,14.23
16.717,5.819,14.31
16.733,4.125,14.40
16.750,2.203,14.48
16.767,0.706,14.57
16.783,-0.034,14.66
16.800,-0.064,14.74
16.817,0.310,14.83
16.833,0.868,14.92
16.850,1.417,15.01
16.867,1.838,15.10
16.883,1.832,15.18
16.900,1.506,15.27
16.917,1.156,15.36
16.933,0.947,15.45
16.950,0.927,15.54
16.967,0.944,15.63
16.983,0.903,15.72
17.000,0.855,15.81
17.017,0.922,15.90
17.033,1.184,16.00
17.050,1.518,16.09
17.067,1.876,16.18
17.083,2.189,16.27
17.100,2.309,16.37
17.117,2.456,16.46
17.133,2.802,16.55
17.150,4.204,16.65
17.167,7.903,16.74
17.183,15.611,16.83
17.200,27.793,16.93
17.217,41.654,17.02
17.233,51.803,17.12
17.250,53.499,17.22
17.267,46.178,17.31
17.283,33.677,17.41
17.300,21.461,17.51
17.317,13.091,17.60
17.333,8.511,17.70
17.350,6.160,17.80
17.367,4.753,17.90
17.383,3.753,17.99
17.400,3.172,18.09
17.417,3.148,18.19
17.433,3.545,18.29
17.450,3.952,18.39
17.467,4.225,18.49
17.483,4.565,18.59
17.500,5.635,18.69
17.517,8.086,18.79
17.533,11.216,18.89
17.550,13.541,19.00
17.567,13.749,19.10
17.583,11.594,19.20
17.600,8.171,19.30
17.617,5.207,19.41
17.633,3.797,19.51
17.650,3.912,19.61
17.667,4.924,19.72
17.683,6.264,19.82
17.700,7.433,19.93
17.717,8.436,20.03
17.733,9.472,20.14
17.750,10.604,20.24
17.767,12.002,20.35
17.783,13.699,20.45
17.800,15.316,20.56
17.817,16.040,20.67
17.833,15.171,20.77
17.850,12.780,20.88
17.867,9.649,20.99
17.883,6.894,21.10
17.900,5.465,21.21
17.917,5.613,21.32
17.933,7.201,21.43
17.950,9.843,21.53
17.967,12.778,21.64
17.983,14.865,21.76
18.000,15.825,21.87
18.017,16.304,21.98
18.033,17.445,22.09
18.050,21.220,22.20
18.067,27.722,22.31
18.083,34.489,22.42
18.100,38.146,22.54
18.117,38.396,22.65
18.133,43.074,22.76
18.150,68.389,22.88
18.167,128.651,22.99
18.183,217.010,23.10
18.200,299.849,23.22
18.217,337.893,23.33
18.233,314.612,23.45
18.250,250.161,23.56
18.267,187.418,23.68
18.283,163.951,23.80
18.300,191.434,23.91
18.317,253.783,24.03
18.333,319.350,24.15
18.350,355.561,24.27
18.367,346.413,24.38
18.383,306.151,24.50
18.400,273.527,24.62
18.417,283.863,24.74
18.433,339.828,24.86
18.450,405.685,24.98
18.467,432.417,25.10
18.483,394.505,25.22
18.500,305.319,25.34
18.517,202.586,25.46
18.533,120.209,25.58
18.550,70.951,25.70
18.567,48.185,25.82
18.583,40.018,25.95
18.600,39.457,26.07
18.617,44.229,26.19
18.633,52.743,26.32
18.650,62.149,26.44
18.667,67.487,26.56
18.683,65.131,26.69
18.700,55.287,26.81
18.717,41.930,26.94
18.733,29.929,27.06
18.750,22.524,27.19
18.767,19.809,27.31
18.783,19.790,27.44
18.800,20.515,27.57
18.817,20.779,27.69
18.833,20.010,27.82
18.850,18.744,27.95
18.867,17.895,28.08
18.883,18.216,28.20
18.900,19.455,28.33
18.917,21.336,28.46
18.933,23.217,28.59
18.950,24.431,28.72
18.967,24.609,28.85
18.983,23.656,28.98
19.000,21.778,29.11
19.017,19.584,29.24
19.033,17.881,29.37
19.050,17.034,29.50
19.067,16.657,29.64
19.083,16.587,29.77
19.100,16.261,29.90
19.117,15.466,30.03
19.133,14.401,30.17
19.150,13.572,30.30
19.167,13.416,30.44
19.183,14.167,30.57
19.200,15.802,30.70
19.217,17.750,30.84
19.233,19.515,30.97
19.250,20.742,31.11
19.267,21.095,31.25
19.283,20.597,31.38
19.300,19.648,31.52
19.317,18.889,31.66
19.333,18.662,31.79
19.350,19.045,31.93
19.367,19.549,32.07
19.383,20.395,32.21
19.400,21.590,32.34
19.417,23.378,32.48
19.433,25.665,32.62
19.450,27.962,32.76
19.467,29.897,32.90
19.483,31.173,33.04
19.500,31.883,33.18
19.517,32.283,33.32
19.533,32.638,33.47
19.550,33.257,33.61
19.567,33.803,33.75
19.583,34.419,33.89
19.600,35.300,34.03
19.617,36.546,34.18
19.633,37.760,34.32
19.650,37.932,34.46
19.667,36.746,34.61
19.683,34.394,34.75
19.700,31.852,34.90
19.717,30.065,35.04
19.733,29.941,35.19
19.750,31.897,35.33
19.767,36.044,35.48
19.783,42.265,35.62
19.800,49.666,35.77
19.817,57.766,35.92
19.833,66.310,36.06
19.850,76.938,36.21
19.867,96.662,36.36
19.883,131.750,36.51
19.900,184.349,36.65
19.917,251.167,36.80
19.933,320.805,36.95
19.950,377.181,37.10
19.967,407.827,37.25
19.983,411.082,37.40
20.000,394.754,37.55
20.017,369.075,37.70
20.033,340.784,37.85
20.050,308.367,38.01
20.067,267.991,38.16
20.083,220.921,38.31
20.100,172.838,38.46
20.117,130.321,38.61
20.133,96.822,38.77
20.150,72.408,38.92
20.167,55.440,39.07
20.183,43.442,39.23
20.200,34.776,39.38
20.217,28.722,39.54
20.233,24.586,39.69
20.250,21.703,39.85
20.267,19.444,40.00
20.283,17.703,40.16
20.300,16.558,40.32
20.317,16.034,40.47
20.333,16.055,40.63
20.350,16.982,40.79
20.367,19.650,40.94
20.383,25.371,41.10
20.400,35.989,41.26
20.417,53.297,41.42
20.433,78.931,41.58
20.450,114.328,41.74
20.467,159.985,41.90
20.483,216.727,42.06
20.500,284.677,42.22
20.517,359.459,42.38
20.533,431.270,42.54
20.550,486.602,42.70
20.567,511.119,42.86
20.583,496.302,43.02
20.600,444.127,43.18
20.617,366.899,43.35
20.633,281.392,43.51
20.650,203.120,43.67
20.667,141.396,43.83
20.683,97.707,44.00
20.700,69.063,44.16
20.717,51.759,44.33
20.733,42.273,44.49
20.750,37.925,44.66
20.767,37.223,44.82
20.783,45.817,44.99
20.800,72.101,45.15
20.817,123.246,45.32
20.833,202.407,45.49
20.850,303.933,45.65
20.867,414.018,45.82
20.883,514.619,45.99
20.900,588.367,46.16
20.917,622.724,46.32
20.933,614.026,46.49
20.950,569.986,46.66
20.967,502.359,46.83
20.983,422.542,47.00
21.000,340.135,47.17
21.017,261.768,47.34
21.033,192.959,47.51
21.050,137.706,47.68
21.067,97.437,47.85
21.083,70.724,48.02
21.100,54.555,48.19
21.117,45.288,48.37
21.133,40.476,48.54
21.150,38.776,48.71
21.167,39.880,48.88
21.183,44.334,49.06
21.200,52.442,49.23
21.217,63.884,49.40
21.233,77.894,49.58
21.250,92.967,49.75
21.267,107.019,49.93
21.283,117.858,50.10
21.300,123.905,50.28
21.317,125.048,50.45
21.333,122.386,50.63
21.350,117.222,50.80
21.367,110.481,50.98
21.383,102.746,51.16
21.400,94.662,51.34
21.417,86.768,51.51
21.433,79.484,51.69
21.450,73.347,51.87
21.467,68.653,52.05
21.483,65.867,52.23
21.500,64.993,52.41
21.517,65.012,52.58
21.533,64.614,52.76
21.550,62.618,52.94
21.567,58.635,53.12
21.583,53.046,53.31
21.600,46.553,53.49
21.617,40.030,53.67
21.633,34.186,53.85
21.650,29.575,54.03
21.667,26.438,54.21
21.683,24.647,54.40
21.700,23.955,54.58
21.717,23.838,54.76
21.733,23.891,54.94
21.750,23.909,55.13
21.767,23.776,55.31
21.783,23.382,55.50
21.800,22.503,55.68
21.817,21.266,55.87
21.833,19.929,56.05
21.850,18.853,56.24
21.867,18.505,56.42
21.883,19.064,56.61
21.900,20.607,56.80
21.917,23.162,56.98
21.933,27.117,57.17
21.950,33.035,57.36
21.967,41.478,57.54
21.983,53.531,57.73
22.000,70.413,57.92
22.017,92.641,58.11
22.033,119.099,58.30
22.050,147.650,58.49
22.067,176.164,58.68
22.083,203.546,58.87
22.100,229.499,59.06
22.117,253.518,59.25
22.133,273.562,59.44
22.150,285.983,59.63
22.167,287.988,59.82
22.183,277.987,60.01
22.200,256.508,60.20
22.217,226.287,60.39
22.233,190.915,60.59
22.250,154.129,60.78
22.267,118.887,60.97
22.283,87.889,61.17
22.300,62.849,61.36
22.317,44.349,61.55
22.333,32.199,61.75
22.350,24.595,61.94
22.367,19.812,62.14
22.383,16.697,62.33
22.400,14.727,62.53
22.417,13.768,62.72
22.433,13.952,62.92
22.450,15.296,63.11
22.467,17.980,63.31
22.483,22.339,63.51
22.500,28.067,63.70
22.517,34.322,63.90
22.533,40.126,64.10
22.550,45.184,64.30
22.567,49.674,64.50
22.583,54.473,64.69
22.600,60.592,64.89
22.617,68.753,65.09
22.633,79.521,65.29
22.650,93.151,65.49
22.667,108.746,65.69
22.683,124.417,65.89
22.700,137.824,66.09
22.717,147.800,66.29
22.733,153.804,66.50
22.750,156.592,66.70
22.767,156.908,66.90
22.783,155.644,67.10
22.800,152.205,67.30
22.817,145.902,67.51
22.833,136.015,67.71
22.850,122.573,67.91
22.867,106.556,68.11
22.883,89.694,68.32
22.900,73.093,68.52
22.917,57.588,68.73
22.933,43.607,68.93
22.950,32.359,69.14
22.967,24.060,69.34
22.983,19.254,69.55
23.000,17.852,69.75
23.017,19.126,69.96
23.033,21.871,70.17
23.050,24.683,70.37
23.067,26.813,70.58
23.083,27.799,70.79
23.100,27.527,70.99
23.117,26.290,71.20
23.133,23.964,71.41
23.150,20.673,71.62
23.167,16.705,71.83
23.183,12.949,72.03
23.200,9.806,72.24
23.217,7.711,72.45
23.233,6.654,72.66
23.250,6.309,72.87
23.267,6.439,73.08
23.283,6.912,73.29
23.300,7.253,73.50
23.317,7.594,73.72
23.333,7.704,73.93
23.350,7.743,74.14
23.367,7.681,74.35
23.383,7.825,74.56
23.400,8.053,74.77
23.417,8.442,74.99
23.433,8.941,75.20
23.450,9.351,75.41
23.467,9.624,75.63
23.483,9.826,75.84
23.500,9.782,76.05
23.517,9.506,76.27
23.533,9.000,76.48
23.550,8.676,76.70
23.567,8.836,76.91
23.583,9.745,77.13
23.600,11.517,77.35
23.617,14.018,77.56
23.633,17.235,77.78
23.650,20.548,77.99
23.667,23.590,78.21
23.683,25.884,78.43
23.700,27.243,78.65
23.717,27.898,78.86
23.733,27.786,79.08
23.750,26.861,79.30
23.767,24.856,79.52
23.783,22.013,79.74
23.800,18.796,79.95
23.817,15.571,80.17
23.833,12.570,80.39
23.850,9.756,80.61
23.867,7.264,80.83
23.883,5.271,81.05
23.900,3.681,81.27
23.917,2.496,81.49
23.933,1.413,81.72
23.950,0.580,81.94
23.967,-0.123,82.16
23.983,-0.637,82.38
24.000,-1.130,82.60
24.017,-1.395,82.83
24.033,-1.242,83.05
24.050,-0.970,83.27
24.067,-0.900,83.49
24.083,-1.177,83.72
24.100,-1.576,83.94
24.117,-1.915,84.17
24.133,-1.976,84.39
24.150,-1.620,84.61
24.167,-1.257,84.84
24.183,-0.838,85.06
24.200,-0.495,85.29
24.217,-0.264,85.51
24.233,-0.051,85.74
24.250,0.149,85.97
24.267,0.547,86.19
24.283,0.884,86.42
24.300,1.163,86.65
24.317,1.430,86.87
24.333,1.523,87.10
24.350,1.496,87.33
24.367,1.368,87.56
24.383,1.308,87.78
24.400,1.414,88.01
24.417,1.722,88.24
24.433,2.227,88.47
24.450,2.785,88.70
24.467,3.474,88.93
24.483,4.183,89.16
24.500,4.735,89.39
24.517,5.195,89.62
24.533,5.561,89.85
24.550,5.701,90.08
24.567,5.668,90.31
24.583,5.423,90.54
24.600,4.841,90.77
24.617,3.975,91.00
24.633,3.023,91.24
24.650,2.071,91.47
24.667,1.333,91.70
24.683,0.889,91.93
24.700,0.434,92.17
24.717,-0.141,92.40
24.733,-0.695,92.63
24.750,-1.156,92.87
24.767,-1.452,93.10
24.783,-1.580,93.33
24.800,-1.664,93.57
24.817,-1.805,93.80
24.833,-1.782,94.04
24.850,-1.600,94.27
24.867,-1.438,94.51
24.883,-1.353,94.74
24.900,-1.330,94.98
24.917,-1.350,95.22
24.933,-1.302,95.45
24.950,-1.192,95.69
24.967,-1.046,95.93
24.983,-0.934,96.16
25.000,-0.762,96.40
25.017,-0.522,96.64
25.033,-0.112,96.88
25.050,0.476,97.11
25.067,1.333,97.35
25.083,2.460,97.59
25.100,3.945,97.83
25.117,5.885,98.07
25.133,8.431,98.31
25.150,12.054,98.55
25.167,17.204,98.79
25.183,23.849,99.03
25.200,31.682,99.27
25.217,40.157,99.51
25.233,48.417,99.75
25.250,55.647,99.99
25.267,61.278,100.23
25.283,64.855,100.47
25.300,66.166,100.71
25.317,65.355,100.96
25.333,62.712,101.20
25.350,58.603,101.44
25.367,53.501,101.68
25.383,47.948,101.93
25.400,42.362,102.17
25.417,37.268,102.41
25.433,33.215,102.66
25.450,30.536,102.90
25.467,29.165,103.14
25.483,28.499,103.39
25.500,28.106,103.63
25.517,27.815,103.88
25.533,27.443,104.12
25.550,26.732,104.37
25.567,25.472,104.61
25.583,23.651,104.86
25.600,21.492,105.10
25.617,19.315,105.35
25.633,17.169,105.60
25.650,15.022,105.84
25.667,13.156,106.09
25.683,11.856,106.34
25.700,11.358,106.58
25.717,11.777,106.83
25.733,13.189,107.08
25.750,15.656,107.33
25.767,18.954,107.57
25.783,22.796,107.82
25.800,26.757,108.07
25.817,30.313,108.32
25.833,33.261,108.57
25.850,35.495,108.82
25.867,36.708,109.07
25.883,36.641,109.32
25.900,35.469,109.57
25.917,33.623,109.82
25.933,31.342,110.07
25.950,28.929,110.32
25.967,26.519,110.57
25.983,24.192,110.82
26.000,22.453,111.07
26.017,21.655,111.32
26.033,21.509,111.57
26.050,21.669,111.83
26.067,21.746,112.08
26.083,21.613,112.33
26.100,21.257,112.58
26.117,20.731,112.84
26.133,19.966,113.09
26.150,18.787,113.34
26.167,17.193,113.60
26.183,15.284,113.85
26.200,13.128,114.10
26.217,11.054,114.36
26.233,9.002,114.61
26.250,7.186,114.87
26.267,5.632,115.12
26.283,4.333,115.38
26.300,3.310,115.63
26.317,2.468,115.89
26.333,1.991,116.14
26.350,1.798,116.40
26.367,1.930,116.65
26.383,2.240,116.91
26.400,2.617,117.17
26.417,3.352,117.42
26.433,4.721,117.68
26.450,7.203,117.94
26.467,10.172,118.20
26.483,11.954,118.45
26.500,11.503,118.71
26.517,8.849,118.97
26.533,5.481,119.23
26.550,2.812,119.49
26.567,1.499,119.74
26.583,0.989,120.00
26.600,0.543,120.26
26.617,0.192,120.52
26.633,-0.001,120.78
26.650,-0.197,121.04
26.667,-0.280,121.30
26.683,-0.254,121.56
26.700,-0.090,121.82
26.717,0.120,122.08
26.733,0.461,122.34
26.750,0.895,122.60
26.767,1.585,122.86
26.783,2.468,123.12
26.800,3.465,123.39
26.817,4.353,123.65
26.833,5.301,123.91
26.850,6.229,124.17
26.867,7.152,124.43
26.883,7.908,124.70
26.900,8.522,124.96
26.917,8.754,125.22
26.933,8.707,125.49
26.950,8.432,125.75
26.967,7.947,126.01
26.983,7.162,126.28
27.000,6.268,126.54
27.017,5.158,126.80
27.033,4.018,127.07
27.050,2.968,127.33
27.067,2.218,127.60
27.083,1.582,127.86
27.100,1.061,128.13
27.117,0.609,128.39
27.133,0.245,128.66
27.150,-0.174,128.92
27.167,-0.331,129.19
27.183,-0.520,129.46
27.200,-0.654,129.72
27.217,-0.766,129.99
27.233,-0.765,130.26
27.250,-0.755,130.52
27.267,-0.736,130.79
27.283,-0.708,131.06
27.300,-0.790,131.32
27.317,-0.975,131.59
27.333,-0.838,131.86
27.350,-0.734,132.13
27.367,-0.576,132.40
27.383,-0.467,132.67
27.400,-0.482,132.93
27.417,-0.593,133.20
27.433,-0.671,133.47
27.450,-0.700,133.74
27.467,-0.733,134.01
27.483,-0.747,134.28
27.500,-0.742,134.55
27.517,-0.865,134.82
27.533,-0.965,135.09
27.550,-1.036,135.36
27.567,-1.040,135.63
27.583,-0.996,135.90
27.600,-1.018,136.17
27.617,-1.072,136.44
27.633,-1.075,136.71
27.650,-0.997,136.99
27.667,-0.921,137.26
27.683,-0.894,137.53
27.700,-0.917,137.80
27.717,-0.858,138.07
27.733,-0.682,138.35
27.750,-0.537,138.62
27.767,-0.407,138.89
27.783,-0.292,139.17
27.800,-0.125,139.44
27.817,0.033,139.71
27.833,0.156,139.99
27.850,0.277,140.26
27.867,0.298,140.53
27.883,0.377,140.81
27.900,0.439,141.08
27.917,0.373,141.36
27.933,0.292,141.63
27.950,0.096,141.91
27.967,-0.019,142.18
27.983,-0.169,142.46
28.000,-0.278,142.73
28.017,-0.309,143.01
28.033,-0.311,143.28
28.050,-0.299,143.56
28.067,-0.224,143.83
28.083,-0.190,144.11
28.100,-0.166,144.39
28.117,-0.172,144.66
28.133,-0.229,144.94
28.150,-0.268,145.22
28.167,-0.314,145.49
28.183,-0.417,145.77
28.200,-0.546,146.05
28.217,-0.627,146.33
28.233,-0.572,146.60
28.250,-0.430,146.88
28.267,-0.308,147.16
28.283,-0.318,147.44
28.300,-0.477,147.72
28.317,-0.567,148.00
28.333,-0.561,148.28
28.350,-0.519,148.55
28.367,-0.520,148.83
28.383,-0.506,149.11
28.400,-0.465,149.39
28.417,-0.431,149.67
28.433,-0.466,149.95
28.450,-0.462,150.23
28.467,-0.419,150.51
28.483,-0.335,150.79
28.500,-0.178,151.07
28.517,-0.173,151.35
28.533,-0.258,151.64
28.550,-0.264,151.92
28.567,-0.117,152.20
28.583,-0.012,152.48
28.600,-0.097,152.76
28.617,-0.242,153.04
28.633,-0.415,153.33
28.650,-0.502,153.61
28.667,-0.453,153.89
28.683,-0.433,154.17
28.700,-0.396,154.45
28.717,-0.381,154.74
28.733,-0.363,155.02
28.750,-0.372,155.30
28.767,-0.468,155.59
28.783,-0.490,155.87
28.800,-0.450,156.15
28.817,-0.428,156.44
28.833,-0.367,156.72
28.850,-0.283,157.01
28.867,-0.184,157.29
28.883,-0.108,157.57
28.900,-0.132,157.86
28.917,-0.212,158.14
28.933,-0.260,158.43
28.950,-0.178,158.71
28.967,-0.047,159.00
28.983,-0.038,159.28
29.000,-0.127,159.57
29.017,-0.261,159.86
29.033,-0.300,160.14
29.050,-0.221,160.43
29.067,-0.078,160.71
29.083,0.133,161.00
29.100,0.352,161.29
29.117,0.500,161.57
29.133,0.499,161.86
29.150,0.387,162.15
29.167,0.253,162.44
29.183,0.201,162.72
29.200,0.277,163.01
29.217,0.381,163.30
29.233,0.503,163.59
29.250,0.625,163.87
29.267,0.684,164.16
29.283,0.690,164.45
29.300,0.578,164.74
29.317,0.421,165.03
29.333,0.274,165.32
29.350,0.180,165.60
29.367,0.169,165.89
29.383,0.194,166.18
29.400,0.194,166.47
29.417,0.187,166.76
29.433,0.388,167.05
29.450,0.748,167.34
29.467,0.980,167.63
29.483,0.893,167.92
29.500,0.588,168.21
29.517,0.313,168.50
29.533,0.278,168.79
29.550,0.393,169.08
29.567,0.403,169.37
29.583,0.250,169.66
29.600,0.200,169.96
29.617,0.336,170.25
29.633,0.610,170.54
29.650,0.837,170.83
29.667,0.872,171.12
29.683,0.691,171.41
29.700,0.485,171.71
29.717,0.315,172.00
29.733,0.178,172.29
29.750,0.135,172.58
29.767,0.083,172.88
29.783,-0.011,173.17
29.800,-0.081,173.46
29.817,-0.052,173.75
29.833,-0.006,174.05
29.850,-0.034,174.34
29.867,-0.013,174.63
29.883,0.050,174.93
29.900,-0.235,175.22
29.917,-0.002,175.52
29.933,0.717,175.81
29.950,1.432,176.10
29.967,1.592,176.40
29.983,1.181,176.69
30.000,0.451,176.99
30.017,-0.049,177.28
30.033,-0.011,177.58
30.050,0.231,177.87
30.067,-0.008,178.17
30.083,-0.115,178.46
30.100,-0.102,178.76
30.117,0.030,179.05
30.133,0.168,179.35
30.150,0.289,179.65
30.167,0.218,179.94
30.183,0.133,180.24
30.200,0.113,180.53
30.217,0.151,180.83
30.233,0.220,181.13
30.250,0.248,181.42
30.267,0.169,181.72
30.283,-0.073,182.02
30.300,-0.178,182.32
30.317,-0.198,182.61
30.333,-0.213,182.91
30.350,-0.171,183.21
30.367,-0.205,183.51
30.383,-0.239,183.80
30.400,-0.219,184.10
30.417,-0.134,184.40
30.433,-0.072,184.70
30.450,-0.122,185.00
30.467,-0.171,185.29
30.483,-0.288,185.59
30.500,-0.315,185.89
30.517,-0.258,186.19
30.533,-0.286,186.49
30.550,-0.261,186.79
30.567,-0.188,187.09
30.583,-0.190,187.39
30.600,-0.155,187.69
30.617,-0.127,187.99
30.633,-0.059,188.29
30.650,-0.042,188.59
30.667,-0.127,188.89
30.683,-0.230,189.19
30.700,-0.315,189.49
30.717,-0.265,189.79
30.733,-0.231,190.09
30.750,-0.200,190.39
30.767,-0.292,190.69
30.783,-0.364,190.99
30.800,-0.219,191.29
30.817,-0.021,191.59
30.833,0.069,191.89
30.850,0.103,192.20
30.867,0.198,192.50
30.883,-0.085,192.80
30.900,-0.200,193.10
30.917,0.110,193.40
30.933,0.618,193.70
30.950,1.018,194.01
30.967,1.033,194.31
30.983,0.670,194.61
31.000,-0.148,194.91
31.017,-0.494,195.22
31.033,-0.059,195.52
31.050,0.376,195.82
31.067,0.699,196.13
31.083,0.539,196.43
31.100,0.100,196.73
31.117,-0.447,197.04
31.133,-0.480,197.34
31.150,-0.043,197.64
31.167,0.199,197.95
31.183,0.298,198.25
31.200,0.237,198.56
31.217,0.056,198.86
31.233,-0.136,199.16
31.250,-0.222,199.47
31.267,-0.271,199.77
31.283,-0.297,200.08
31.300,-0.235,200.38
31.317,-0.107,200.69
31.333,-0.002,200.99
31.350,-0.071,201.30
31.367,-0.216,201.60
31.383,-0.242,201.91
31.400,-0.161,202.21
31.417,0.010,202.52
31.433,0.126,202.82
31.450,0.112,203.13
31.467,0.306,203.44
31.483,1.065,203.74
31.500,1.897,204.05
31.517,2.216,204.35
31.533,1.837,204.66
31.550,0.985,204.97
31.567,0.205,205.27
31.583,-0.087,205.58
31.600,0.004,205.89
31.617,-0.021,206.20
31.633,-0.055,206.50
31.650,0.003,206.81
31.667,0.080,207.12
31.683,0.244,207.42
31.700,0.439,207.73
31.717,0.452,208.04
31.733,0.564,208.35
31.750,0.636,208.65
31.767,0.743,208.96
31.783,0.753,209.27
31.800,0.698,209.58
31.817,0.511,209.89
31.833,0.299,210.20
31.850,0.055,210.50
31.867,-0.107,210.81
31.883,-0.113,211.12
31.900,0.083,211.43
31.917,0.159,211.74
31.933,0.133,212.05
31.950,-0.017,212.36
31.967,-0.122,212.67
31.983,-0.136,212.98
32.000,-0.050,213.29
32.017,-0.059,213.60
32.033,-0.061,213.91
32.050,0.011,214.22
32.067,0.047,214.53
32.083,0.083,214.84
32.100,0.006,215.15
32.117,-0.131,215.46
32.133,-0.167,215.77
32.150,-0.118,216.08
32.167,-0.081,216.39
32.183,-0.080,216.70
32.200,-0.076,217.01
32.217,-0.119,217.32
32.233,-0.184,217.63
32.250,-0.137,217.94
32.267,-0.069,218.25
32.283,0.019,218.56
32.300,0.156,218.88
32.317,0.281,219.19
32.333,0.257,219.50
32.350,0.185,219.81
32.367,0.075,220.12
32.383,-0.085,220.43
32.400,-0.218,220.75
32.417,-0.302,221.06
32.433,-0.291,221.37
32.450,-0.253,221.68
32.467,-0.179,222.00
32.483,-0.112,222.31
32.500,-0.125,222.62
32.517,-0.205,222.93
32.533,-0.330,223.25
32.550,-0.411,223.56
32.567,-0.359,223.87
32.583,-0.248,224.18
32.600,-0.165,224.50
32.617,-0.176,224.81
32.633,-0.224,225.12
32.650,-0.269,225.44
32.667,-0.267,225.75
32.683,-0.221,226.07
32.700,-0.110,226.38
32.717,0.084,226.69
32.733,0.271,227.01
32.750,0.347,227.32
32.767,0.288,227.64
32.783,0.115,227.95
32.800,-0.064,228.26
32.817,-0.100,228.58
32.833,-0.037,228.89
32.850,0.000,229.21
32.867,-0.023,229.52
32.883,-0.065,229.84
32.900,-0.073,230.15
32.917,-0.038,230.47
32.933,0.003,230.78
32.950,-0.044,231.10
32.967,-0.176,231.41
32.983,-0.211,231.73
33.000,-0.126,232.04
33.017,-0.053,232.36
33.033,-0.050,232.67
33.050,-0.069,232.99
33.067,-0.012,233.31
33.083,0.054,233.62
33.100,0.063,233.94
33.117,-0.003,234.25
33.133,-0.152,234.57
33.150,-0.303,234.89
33.167,-0.356,235.20
33.183,-0.266,235.52
33.200,-0.112,235.84
33.217,0.028,236.15
33.233,0.076,236.47
33.250,-0.030,236.79
33.267,-0.167,237.10
33.283,-0.176,237.42
33.300,-0.074,237.74
33.317,0.050,238.05
33.333,0.111,238.37
33.350,0.082,238.69
33.367,-0.077,239.01
33.383,-0.208,239.32
33.400,-0.233,239.64
33.417,-0.188,239.96
33.433,-0.110,240.28
33.450,-0.084,240.59
33.467,-0.139,240.91
33.483,-0.156,241.23
33.500,-0.082,241.55
33.517,0.037,241.87
33.533,0.151,242.18
33.550,0.210,242.50
33.567,0.203,242.82
33.583,0.140,243.14
33.600,0.095,243.46
33.617,0.125,243.78
33.633,0.148,244.10
33.650,0.127,244.41
33.667,0.030,244.73
33.683,-0.034,245.05
33.700,-0.067,245.37
33.717,-0.073,245.69
33.733,-0.017,246.01
33.750,0.110,246.33
33.767,0.153,246.65
33.783,0.166,246.97
33.800,0.061,247.29
33.817,-0.050,247.61
33.833,-0.132,247.93
33.850,-0.131,248.25
33.867,-0.098,248.57
33.883,-0.110,248.89
33.900,-0.099,249.21
33.917,-0.038,249.53
33.933,-0.047,249.85
33.950,-0.113,250.17
33.967,-0.152,250.49
33.983,-0.200,250.81
34.000,-0.246,251.13
34.017,-0.289,251.45
34.033,-0.315,251.77
34.050,-0.329,252.09
34.067,-0.241,252.41
34.083,-0.146,252.73
34.100,-0.086,253.05
34.117,-0.153,253.37
34.133,-0.132,253.69
34.150,-0.085,254.02
34.167,-0.063,254.34
34.183,-0.024,254.66
34.200,-0.091,254.98
34.217,-0.267,255.30
34.233,-0.272,255.62
34.250,-0.168,255.94
34.267,0.012,256.27
34.283,0.089,256.59
34.300,0.113,256.91
34.317,-0.066,257.23
34.333,-0.247,257.55
34.350,-0.206,257.88
34.367,-0.105,258.20
34.383,-0.133,258.52
34.400,-0.143,258.84
34.417,-0.186,259.16
34.433,-0.225,259.49
34.450,-0.203,259.81
34.467,-0.174,260.13
34.483,-0.270,260.45
34.500,-0.352,260.78
34.517,-0.358,261.10
34.533,-0.278,261.42
34.550,-0.222,261.75
34.567,-0.129,262.07
34.583,-0.063,262.39
34.600,-0.159,262.71
34.617,-0.183,263.04
34.633,-0.196,263.36
34.650,-0.095,263.68
34.667,-0.048,264.01
34.683,-0.080,264.33
34.700,-0.196,264.65
34.717,-0.332,264.98
34.733,-0.335,265.30
34.750,-0.301,265.63
34.767,-0.236,265.95
34.783,-0.167,266.27
34.800,-0.151,266.60
34.817,-0.103,266.92
34.833,-0.045,267.24
34.850,-0.052,267.57
34.867,-0.021,267.89
34.883,-0.004,268.22
34.900,0.076,268.54
34.917,0.084,268.87
34.933,0.093,269.19
34.950,0.065,269.51
34.967,-0.067,269.84
34.983,-0.464,270.16
35.000,-0.445,270.49
35.017,0.008,270.81
35.033,0.658,271.14
35.050,1.033,271.46
35.067,0.775,271.79
35.083,0.724,272.11
35.100,1.654,272.44
35.117,3.239,272.76
35.133,4.244,273.09
35.150,3.621,273.41
35.167,2.060,273.74
35.183,0.467,274.06
35.200,-0.204,274.39
35.217,-0.061,274.72
35.233,0.031,275.04
35.250,0.025,275.37
35.267,-0.069,275.69
35.283,-0.130,276.02
35.300,-0.157,276.34
35.317,-0.175,276.67
35.333,-0.057,277.00
35.350,0.041,277.32
35.367,0.058,277.65
35.383,0.040,277.97
35.400,-0.038,278.30
35.417,-0.192,278.63
35.433,-0.263,278.95
35.450,-0.228,279.28
35.467,-0.248,279.60
35.483,-0.270,279.93
35.500,-0.287,280.26
35.517,-0.301,280.58
35.533,-0.408,280.91
35.550,-0.363,281.24
35.567,-0.199,281.56
35.583,-0.070,281.89
35.600,-0.059,282.22
35.617,-0.109,282.54
35.633,-0.181,282.87
35.650,-0.200,283.20
35.667,-0.197,283.52
35.683,-0.192,283.85
35.700,-0.314,284.18
35.717,-0.423,284.51
35.733,-0.382,284.83
35.750,-0.220,285.16
35.767,-0.033,285.49
35.783,0.050,285.82
35.800,0.024,286.14
35.817,-0.033,286.47
35.833,-0.089,286.80
35.850,-0.126,287.13
35.867,-0.120,287.45
35.883,-0.190,287.78
35.900,-0.252,288.11
35.917,-0.260,288.44
35.933,-0.136,288.76
35.950,-0.033,289.09
35.967,0.026,289.42
35.983,-0.052,289.75
36.000,-0.215,290.08
36.017,-0.300,290.40
36.033,-0.291,290.73
36.050,-0.204,291.06
36.067,-0.067,291.39
36.083,0.017,291.72
36.100,0.013,292.05
36.117,-0.116,292.37
36.133,-0.247,292.70
36.150,-0.318,293.03
36.167,-0.267,293.36
36.183,-0.203,293.69
36.200,-0.208,294.02
36.217,-0.170,294.35
36.233,-0.112,294.68
36.250,-0.078,295.00
36.267,-0.095,295.33
36.283,-0.181,295.66
36.300,-0.201,295.99
36.317,-0.147,296.32
36.333,-0.089,296.65
36.350,-0.111,296.98
36.367,-0.142,297.31
36.383,-0.141,297.64
36.400,-0.085,297.97
36.417,-0.033,298.29
36.433,-0.056,298.62
36.450,-0.035,298.95
36.467,0.090,299.28
36.483,0.155,299.61
36.500,0.123,299.94
36.517,0.053,300.27
36.533,-0.014,300.60
36.550,-0.050,300.93
36.567,-0.013,301.26
36.583,0.051,301.59
36.600,0.077,301.92
36.617,0.222,302.25
36.633,0.504,302.58
36.650,0.746,302.91
36.667,0.833,303.24
36.683,0.701,303.57
36.700,0.409,303.90
36.717,0.101,304.23
36.733,-0.152,304.56
36.750,-0.198,304.89
36.767,-0.093,305.22
36.783,-0.023,305.55
36.800,0.025,305.88
36.817,0.012,306.21
36.833,-0.018,306.54
36.850,-0.037,306.87
36.867,-0.079,307.20
36.883,-0.105,307.53
36.900,-0.170,307.86
36.917,-0.224,308.19
36.933,-0.207,308.52
36.950,-0.224,308.85
36.967,-0.182,309.19
36.983,-0.078,309.52
37.000,0.032,309.85
37.017,0.142,310.18
37.033,0.175,310.51
37.050,0.153,310.84
37.067,0.017,311.17
37.083,-0.193,311.50
37.100,-0.319,311.83
37.117,-0.356,312.16
37.133,-0.465,312.49
37.150,-0.398,312.83
37.167,0.260,313.16
37.183,1.280,313.49
37.200,1.954,313.82
37.217,1.824,314.15
37.233,0.965,314.48
37.250,-0.018,314.81
37.267,-0.480,315.14
37.283,-0.287,315.48
37.300,-0.138,315.81
37.317,-0.165,316.14
37.333,-0.152,316.47
37.350,-0.092,316.80
37.367,-0.092,317.13
37.383,-0.115,317.47
37.400,-0.173,317.80
37.417,-0.200,318.13
37.433,-0.217,318.46
37.450,-0.110,318.79
37.467,-0.060,319.12
37.483,-0.014,319.46
37.500,-0.110,319.79
37.517,-0.244,320.12
37.533,-0.345,320.45
37.550,-0.321,320.78
37.567,-0.286,321.12
37.583,-0.210,321.45
37.600,-0.230,321.78
37.617,-0.283,322.11
37.633,-0.340,322.44
37.650,-0.389,322.78
37.667,-0.469,323.11
37.683,-0.575,323.44
37.700,-0.501,323.77
37.717,-0.228,324.11
37.733,-0.019,324.44
37.750,0.072,324.77
37.767,0.016,325.10
37.783,-0.084,325.43
37.800,-0.138,325.77
37.817,-0.150,326.10
37.833,-0.176,326.43
37.850,-0.169,326.76
37.867,-0.090,327.10
37.883,0.010,327.43
37.900,0.006,327.76
37.917,-0.074,328.10
37.933,-0.091,328.43
37.950,-0.044,328.76
37.967,-0.066,329.09
37.983,-0.097,329.43
38.000,-0.180,329.76
38.017,-0.163,330.09
38.033,-0.041,330.42
38.050,0.051,330.76
38.067,0.025,331.09
38.083,-0.117,331.42
38.100,-0.178,331.76
38.117,-0.205,332.09
38.133,-0.228,332.42
38.150,-0.226,332.76
38.167,-0.143,333.09
38.183,-0.066,333.42
38.200,-0.020,333.76
38.217,-0.046,334.09
38.233,0.011,334.42
38.250,0.098,334.75
38.267,0.247,335.09
38.283,0.223,335.42
38.300,0.096,335.75
38.317,-0.068,336.09
38.333,-0.036,336.42
38.350,-0.017,336.75
38.367,-0.071,337.09
38.383,-0.183,337.42
38.400,-0.075,337.76
38.417,0.110,338.09
38.433,0.331,338.42
38.450,0.368,338.76
38.467,0.265,339.09
38.483,0.128,339.42
38.500,0.116,339.76
38.517,0.262,340.09
38.533,0.404,340.42
38.550,0.490,340.76
38.567,0.550,341.09
38.583,0.601,341.42
38.600,0.699,341.76
38.617,0.728,342.09
38.633,0.632,342.43
38.650,0.507,342.76
38.667,0.447,343.09
38.683,0.567,343.43
38.700,0.533,343.76
38.717,0.373,344.10
38.733,0.114,344.43
38.750,-0.033,344.76
38.767,0.035,345.10
38.783,0.118,345.43
38.800,0.108,345.77
38.817,0.008,346.10
38.833,-0.099,346.43
38.850,-0.046,346.77
38.867,-0.005,347.10
38.883,0.046,347.44
38.900,-0.005,347.77
38.917,-0.036,348.10
38.933,-0.052,348.44
38.950,-0.095,348.77
38.967,-0.127,349.11
38.983,-0.139,349.44
39.000,-0.114,349.78
39.017,-0.134,350.11
39.033,-0.149,350.44
39.050,-0.105,350.78
39.067,-0.129,351.11
39.083,-0.009,351.45
39.100,0.052,351.78
39.117,0.072,352.12
39.133,0.030,352.45
39.150,-0.031,352.78
39.167,-0.042,353.12
39.183,-0.097,353.45
39.200,-0.083,353.79
39.217,0.024,354.12
39.233,0.033,354.46
39.250,0.049,354.79
39.267,-0.059,355.13
39.283,-0.035,355.46
39.300,0.083,355.80
39.317,0.183,356.13
39.333,0.250,356.46
39.350,0.132,356.80
39.367,0.004,357.13
39.383,-0.090,357.47
39.400,-0.122,357.80
39.417,-0.087,358.14
39.433,-0.071,358.47
39.450,-0.008,358.81
39.467,0.021,359.14
39.483,0.064,359.48
39.500,0.097,359.81
39.517,0.032,360.15
39.533,-0.046,360.48
39.550,-0.176,360.82
39.567,-0.269,361.15
39.583,-0.327,361.49
39.600,-0.338,361.82
39.617,-0.321,362.16
39.633,-0.215,362.49
39.650,-0.118,362.83
39.667,-0.120,363.16
39.683,-0.161,363.50
39.700,-0.218,363.83
39.717,-0.173,364.17
39.733,0.012,364.50
39.750,0.189,364.84
39.767,0.265,365.17
39.783,0.242,365.51
39.800,0.183,365.84
39.817,0.115,366.18
39.833,0.075,366.51
39.850,0.076,366.85
39.867,0.093,367.18
39.883,0.215,367.52
39.900,0.356,367.85
39.917,0.364,368.19
39.933,0.270,368.52
39.950,0.177,368.86
39.967,0.162,369.19
39.983,0.196,369.53
40.000,0.157,369.86
40.017,-0.041,370.20
40.033,-0.265,370.53
40.050,-0.318,370.87
40.067,-0.221,371.20
40.083,-0.159,371.54
40.100,-0.152,371.87
40.117,-0.114,372.21
40.133,-0.071,372.54
40.150,-0.045,372.88
40.167,-0.023,373.21
40.183,-0.039,373.55
40.200,-0.089,373.88
40.217,-0.106,374.22
40.233,-0.092,374.55
40.250,-0.099,374.89
40.267,-0.096,375.23
40.283,-0.063,375.56
40.300,-0.057,375.90
40.317,-0.091,376.23
40.333,-0.150,376.57
40.350,-0.162,376.90
40.367,-0.191,377.24
40.383,-0.276,377.57
40.400,-0.298,377.91
40.417,-0.242,378.24
40.433,-0.171,378.58
40.450,-0.144,378.91
40.467,-0.119,379.25
40.483,-0.129,379.59
40.500,-0.134,379.92
40.517,-0.035,380.26
40.533,0.027,380.59
40.550,-0.004,380.93
40.567,0.038,381.26
40.583,0.128,381.60
40.600,0.238,381.93
40.617,0.221,382.27
40.633,0.103,382.60
40.650,0.031,382.94
40.667,0.077,383.28
40.683,0.235,383.61
40.700,0.317,383.95
40.717,0.224,384.28
40.733,0.056,384.62
40.750,-0.139,384.95
40.767,-0.150,385.29
40.783,-0.066,385.62
40.800,0.011,385.96
40.817,0.141,386.29
40.833,0.138,386.63
40.850,0.067,386.97
40.867,0.033,387.30
40.883,0.051,387.64
40.900,0.111,387.97
40.917,0.097,388.31
40.933,0.019,388.64
40.950,-0.091,388.98
40.967,-0.120,389.31
40.983,-0.069,389.65
41.000,-0.091,389.99
41.017,-0.159,390.32
41.033,-0.198,390.66
41.050,-0.198,390.99
41.067,-0.159,391.33
41.083,-0.088,391.66
41.100,-0.065,392.00
41.117,-0.071,392.34
41.133,-0.014,392.67
41.150,0.072,393.01
41.167,0.140,393.34
41.183,0.084,393.68
41.200,-0.012,394.01
41.217,-0.029,394.35
41.233,-0.080,394.68
41.250,-0.076,395.02
41.267,0.076,395.36
41.283,0.214,395.69
41.300,0.273,396.03
41.317,0.266,396.36
41.333,0.169,396.70
41.350,0.049,397.03
41.367,-0.089,397.37
41.383,-0.123,397.70
41.400,-0.175,398.04
41.417,-0.175,398.38
41.433,-0.119,398.71
41.450,-0.087,399.05
41.467,-0.051,399.38
41.483,-0.083,399.72
41.500,0.050,400.05
41.517,0.276,400.39
41.533,0.353,400.73
41.550,0.346,401.06
41.567,0.195,401.40
41.583,0.078,401.73
41.600,-0.020,402.07
41.617,-0.035,402.40
41.633,-0.043,402.74
41.650,-0.178,403.07
41.667,-0.133,403.41
41.683,-0.073,403.75
