VERSION=1.3
ExportFileName=PM TG 16_2025-05-14_13-24-16_labchip_PURE_Data_E9
SampleLabel=E9
SampleName=PM TG 16
SampleComment=
SampleAreaConcRatio=0.014476
SampleLowerMarkerTime=12.15
SampleUpperMarkerTime=-1.00
SamplePeakTimes=12.15,15.18,15.55,17.23,17.83,18.10,18.22,18.35,18.47,18.67,18.82,18.97,19.27,19.65,19.98,20.57,20.93,21.33,22.18,22.77,23.10,23.75,25.33,25.90
SamplePeakSizes=1.393,7.869,9.213,17.258,20.910,22.669,23.465,24.395,25.225,26.687,27.814,28.968,31.357,34.563,37.492,42.927,46.543,50.661,59.995,66.846,70.918,79.177,100.944,109.262
SamplePeakQuantities=,,,8.3981,4.1259,6.7181,59.8946,59.9334,78.0514,15.4555,3.7232,9.9507,6.1501,28.7012,196.8730,198.4893,390.1767,115.1623,178.2478,128.2844,15.7983,19.4538,62.5897,42.1755
PlateFileName=2025-05-14_13-24-16_labchip_PURE
PlateAssayName=HT Protein Express 200
PlateBarCode=N/A
WellAquisitionTime=5/14/2025 2:28:50 PM 
PlateDataFrequency=60
PlateDataStartTime=11.00
PlateDataEndTime=42.00
PlateConcUnits=ng/ul
PlateSizeUnits=kDa
PlateLadderSizes=1.40,15.90,20.40,28.90,48.40,68.40,119.20
ChipID=H296P-0563N-03
Operator=ACJS
DATA
Time,Value,Size
0.000,28.548,0.00
0.017,28.548,0.00
0.033,28.548,0.00
0.050,28.548,0.00
0.067,28.548,0.00
0.083,28.548,0.00
0.100,28.548,0.00
0.117,28.265,0.00
0.133,28.652,0.00
0.150,29.019,0.00
0.167,29.193,0.00
0.183,29.066,0.00
0.200,28.752,0.00
0.217,28.394,0.00
0.233,28.134,0.00
0.250,27.943,0.00
0.267,27.835,0.00
0.283,27.891,0.00
0.300,27.944,0.00
0.317,28.068,0.00
0.333,28.161,0.00
0.350,28.071,0.00
0.367,27.730,0.00
0.383,27.127,0.00
0.400,26.462,0.00
0.417,25.907,0.00
0.433,25.402,0.00
0.450,24.821,0.00
0.467,24.127,0.00
0.483,23.342,0.00
0.500,22.457,0.00
0.517,21.540,0.00
0.533,20.608,0.00
0.550,19.609,0.00
0.567,18.631,0.00
0.583,17.707,0.00
0.600,16.777,0.00
0.617,15.834,0.00
0.633,14.896,0.00
0.650,13.925,0.00
0.667,12.970,0.00
0.683,12.138,0.00
0.700,11.406,0.00
0.717,10.768,0.00
0.733,10.128,0.00
0.750,9.418,0.00
0.767,8.730,0.00
0.783,8.081,0.00
0.800,7.482,0.00
0.817,6.947,0.00
0.833,6.429,0.00
0.850,5.894,0.00
0.867,5.377,0.00
0.883,4.924,0.00
0.900,4.509,0.00
0.917,4.133,0.00
0.933,3.766,0.00
0.950,3.340,0.00
0.967,2.927,0.00
0.983,2.576,0.00
1.000,2.259,0.00
1.017,1.990,0.00
1.033,1.724,0.00
1.050,1.403,0.00
1.067,1.060,0.00
1.083,0.740,0.00
1.100,0.443,0.00
1.117,0.173,0.00
1.133,-0.030,0.00
1.150,-0.170,0.00
1.167,-0.343,0.00
1.183,-0.514,0.00
1.200,-0.733,0.00
1.217,-1.017,0.00
1.233,-1.241,0.00
1.250,-1.407,0.00
1.267,-1.571,0.00
1.283,-1.737,0.00
1.300,-1.852,0.00
1.317,-1.993,0.00
1.333,-2.193,0.00
1.350,-2.347,0.00
1.367,-2.483,0.00
1.383,-2.643,0.00
1.400,-2.798,0.00
1.417,-2.988,0.00
1.433,-3.178,0.00
1.450,-3.256,0.00
1.467,-3.271,0.00
1.483,-3.350,0.00
1.500,-3.446,0.00
1.517,-3.595,0.00
1.533,-3.710,0.00
1.550,-3.823,0.00
1.567,-3.899,0.00
1.583,-3.975,0.00
1.600,-4.064,0.00
1.617,-4.134,0.00
1.633,-4.240,0.00
1.650,-4.384,0.00
1.667,-4.426,0.00
1.683,-4.502,0.00
1.700,-4.541,0.00
1.717,-4.601,0.00
1.733,-4.692,0.00
1.750,-4.810,0.00
1.767,-4.918,0.00
1.783,-4.966,0.00
1.800,-5.018,0.00
1.817,-5.143,0.00
1.833,-5.234,0.00
1.850,-5.348,0.00
1.867,-5.412,0.00
1.883,-5.436,0.00
1.900,-5.494,0.00
1.917,-5.528,0.00
1.933,-5.664,0.00
1.950,-5.794,0.00
1.967,-5.930,0.00
1.983,-6.070,0.00
2.000,-6.165,0.00
2.017,-6.167,0.00
2.033,-6.170,0.00
2.050,-6.193,0.00
2.067,-6.268,0.00
2.083,-6.325,0.00
2.100,-6.418,0.00
2.117,-6.466,0.00
2.133,-6.510,0.00
2.150,-6.592,0.00
2.167,-6.723,0.00
2.183,-6.855,0.00
2.200,-7.018,0.00
2.217,-7.078,0.00
2.233,-7.092,0.00
2.250,-7.070,0.00
2.267,-7.073,0.00
2.283,-7.142,0.00
2.300,-7.221,0.00
2.317,-7.307,0.00
2.333,-7.399,0.00
2.350,-7.476,0.00
2.367,-7.530,0.00
2.383,-7.557,0.00
2.400,-7.588,0.00
2.417,-7.644,0.00
2.433,-7.700,0.00
2.450,-7.720,0.00
2.467,-7.715,0.00
2.483,-7.727,0.00
2.500,-7.794,0.00
2.517,-7.877,0.00
2.533,-7.941,0.00
2.550,-7.969,0.00
2.567,-8.038,0.00
2.583,-8.018,0.00
2.600,-7.953,0.00
2.617,-7.894,0.00
2.633,-7.905,0.00
2.650,-7.909,0.00
2.667,-7.958,0.00
2.683,-8.045,0.00
2.700,-8.087,0.00
2.717,-8.073,0.00
2.733,-8.178,0.00
2.750,-8.235,0.00
2.767,-8.281,0.00
2.783,-8.279,0.00
2.800,-8.335,0.00
2.817,-8.335,0.00
2.833,-8.422,0.00
2.850,-8.566,0.00
2.867,-8.689,0.00
2.883,-8.740,0.00
2.900,-8.813,0.00
2.917,-8.895,0.00
2.933,-9.016,0.00
2.950,-9.181,0.00
2.967,-9.305,0.00
2.983,-9.314,0.00
3.000,-9.288,0.00
3.017,-9.313,0.00
3.033,-9.444,0.00
3.050,-9.581,0.00
3.067,-9.706,0.00
3.083,-9.744,0.00
3.100,-9.753,0.00
3.117,-9.759,0.00
3.133,-9.734,0.00
3.150,-9.720,0.00
3.167,-9.762,0.00
3.183,-9.862,0.00
3.200,-9.888,0.00
3.217,-9.860,0.00
3.233,-9.843,0.00
3.250,-9.854,0.00
3.267,-9.948,0.00
3.283,-10.091,0.00
3.300,-10.184,0.00
3.317,-10.197,0.00
3.333,-10.215,0.00
3.350,-10.241,0.00
3.367,-10.236,0.00
3.383,-10.295,0.00
3.400,-10.367,0.00
3.417,-10.377,0.00
3.433,-10.374,0.00
3.450,-10.442,0.00
3.467,-10.677,0.00
3.483,-11.134,0.00
3.500,-11.705,0.00
3.517,-12.209,0.00
3.533,-12.569,0.00
3.550,-12.912,0.00
3.567,-13.247,0.00
3.583,-13.544,0.00
3.600,-13.829,0.00
3.617,-14.050,0.00
3.633,-14.228,0.00
3.650,-14.361,0.00
3.667,-14.452,0.00
3.683,-14.506,0.00
3.700,-14.562,0.00
3.717,-14.587,0.00
3.733,-14.598,0.00
3.750,-14.619,0.00
3.767,-14.661,0.00
3.783,-14.702,0.00
3.800,-14.707,0.00
3.817,-14.669,0.00
3.833,-14.619,0.00
3.850,-14.612,0.00
3.867,-14.637,0.00
3.883,-14.625,0.00
3.900,-14.630,0.00
3.917,-14.663,0.00
3.933,-14.692,0.00
3.950,-14.675,0.00
3.967,-14.615,0.00
3.983,-14.580,0.00
4.000,-14.594,0.00
4.017,-14.650,0.00
4.033,-14.695,0.00
4.050,-14.694,0.00
4.067,-14.658,0.00
4.083,-14.610,0.00
4.100,-14.547,0.00
4.117,-14.475,0.00
4.133,-14.427,0.00
4.150,-14.433,0.00
4.167,-14.465,0.00
4.183,-14.507,0.00
4.200,-14.527,0.00
4.217,-14.520,0.00
4.233,-14.502,0.00
4.250,-14.493,0.00
4.267,-14.487,0.00
4.283,-14.470,0.00
4.300,-14.429,0.00
4.317,-14.397,0.00
4.333,-14.396,0.00
4.350,-14.451,0.00
4.367,-14.489,0.00
4.383,-14.520,0.00
4.400,-14.530,0.00
4.417,-14.507,0.00
4.433,-14.488,0.00
4.450,-14.493,0.00
4.467,-14.503,0.00
4.483,-14.516,0.00
4.500,-14.531,0.00
4.517,-14.546,0.00
4.533,-14.529,0.00
4.550,-14.534,0.00
4.567,-14.517,0.00
4.583,-14.480,0.00
4.600,-14.452,0.00
4.617,-14.444,0.00
4.633,-14.415,0.00
4.650,-14.338,0.00
4.667,-14.254,0.00
4.683,-14.220,0.00
4.700,-14.206,0.00
4.717,-14.207,0.00
4.733,-14.207,0.00
4.750,-14.203,0.00
4.767,-14.153,0.00
4.783,-14.073,0.00
4.800,-13.950,0.00
4.817,-13.809,0.00
4.833,-13.713,0.00
4.850,-13.621,0.00
4.867,-13.516,0.00
4.883,-13.383,0.00
4.900,-13.186,0.00
4.917,-12.936,0.00
4.933,-12.669,0.00
4.950,-12.400,0.00
4.967,-12.148,0.00
4.983,-11.915,0.00
5.000,-11.674,0.00
5.017,-11.391,0.00
5.033,-11.124,0.00
5.050,-10.827,0.00
5.067,-10.477,0.00
5.083,-10.180,0.00
5.100,-9.929,0.00
5.117,-9.700,0.00
5.133,-9.490,0.00
5.150,-9.277,0.00
5.167,-9.013,0.00
5.183,-8.766,0.00
5.200,-8.545,0.00
5.217,-8.397,0.00
5.233,-8.296,0.00
5.250,-8.188,0.00
5.267,-7.995,0.00
5.283,-7.803,0.00
5.300,-7.665,0.00
5.317,-7.592,0.00
5.333,-7.565,0.00
5.350,-7.552,0.00
5.367,-7.471,0.00
5.383,-7.384,0.00
5.400,-7.365,0.00
5.417,-7.347,0.00
5.433,-7.317,0.00
5.450,-7.322,0.00
5.467,-7.371,0.00
5.483,-7.393,0.00
5.500,-7.382,0.00
5.517,-7.394,0.00
5.533,-7.501,0.00
5.550,-7.762,0.00
5.567,-8.172,0.00
5.583,-8.471,0.00
5.600,-8.446,0.00
5.617,-8.208,0.00
5.633,-7.955,0.00
5.650,-7.770,0.00
5.667,-7.675,0.00
5.683,-7.613,0.00
5.700,-7.568,0.00
5.717,-7.499,0.00
5.733,-7.381,0.00
5.750,-7.279,0.00
5.767,-7.186,0.00
5.783,-7.111,0.00
5.800,-6.938,0.00
5.817,-6.746,0.00
5.833,-6.612,0.00
5.850,-6.511,0.00
5.867,-6.515,0.00
5.883,-6.418,0.00
5.900,-6.127,0.00
5.917,-5.844,0.00
5.933,-5.517,0.00
5.950,-5.306,0.00
5.967,-5.272,0.00
5.983,-5.494,0.00
6.000,-5.804,0.00
6.017,-6.071,0.00
6.033,-6.259,0.00
6.050,-6.280,0.00
6.067,-6.326,0.00
6.083,-6.473,0.00
6.100,-6.615,0.00
6.117,-6.866,0.00
6.133,-7.041,0.00
6.150,-7.218,0.00
6.167,-7.270,0.00
6.183,-7.307,0.00
6.200,-7.383,0.00
6.217,-7.482,0.00
6.233,-7.551,0.00
6.250,-7.571,0.00
6.267,-7.680,0.00
6.283,-7.718,0.00
6.300,-7.540,0.00
6.317,-7.404,0.00
6.333,-7.326,0.00
6.350,-7.445,0.00
6.367,-7.694,0.00
6.383,-7.898,0.00
6.400,-7.913,0.00
6.417,-7.918,0.00
6.433,-7.996,0.00
6.450,-8.050,0.00
6.467,-8.081,0.00
6.483,-8.136,0.00
6.500,-8.216,0.00
6.517,-8.424,0.00
6.533,-8.311,0.00
6.550,-7.962,0.00
6.567,-7.677,0.00
6.583,-7.766,0.00
6.600,-8.178,0.00
6.617,-8.738,0.00
6.633,-10.257,0.00
6.650,-10.428,0.00
6.667,1.866,0.00
6.683,4.526,0.00
6.700,-30.771,0.00
6.717,-13.993,0.00
6.733,170.279,0.00
6.750,595.567,0.00
6.767,1359.776,0.00
6.783,2240.575,0.00
6.800,2913.087,0.00
6.817,3211.075,0.00
6.833,3208.577,0.00
6.850,3084.121,0.00
6.867,2995.843,0.00
6.883,3007.029,0.00
6.900,3011.792,0.00
6.917,2958.838,0.00
6.933,2939.549,0.00
6.950,2928.613,0.00
6.967,2924.859,0.00
6.983,2924.741,0.00
7.000,2926.202,0.00
7.017,2928.092,0.00
7.033,2930.957,0.00
7.050,2933.655,0.00
7.067,2934.794,0.00
7.083,2935.490,0.00
7.100,2936.101,0.00
7.117,2936.717,0.00
7.133,2938.061,0.00
7.150,2940.376,0.00
7.167,2942.321,0.00
7.183,2944.004,0.00
7.200,2945.995,0.00
7.217,2947.063,0.00
7.233,2947.526,0.00
7.250,2947.026,0.00
7.267,2946.268,0.00
7.283,2946.503,0.00
7.300,2946.687,0.00
7.317,2946.631,0.00
7.333,2945.692,0.00
7.350,2944.216,0.00
7.367,2942.140,0.00
7.383,2939.737,0.00
7.400,2937.826,0.00
7.417,2935.255,0.00
7.433,2931.793,0.00
7.450,2926.973,0.00
7.467,2920.882,0.00
7.483,2915.150,0.00
7.500,2909.383,0.00
7.517,2903.551,0.00
7.533,2897.563,0.00
7.550,2890.997,0.00
7.567,2884.540,0.00
7.583,2878.588,0.00
7.600,2872.166,0.00
7.617,2865.412,0.00
7.633,2858.570,0.00
7.650,2851.800,0.00
7.667,2845.109,0.00
7.683,2838.922,0.00
7.700,2832.876,0.00
7.717,2826.316,0.00
7.733,2819.454,0.00
7.750,2812.640,0.00
7.767,2805.953,0.00
7.783,2800.020,0.00
7.800,2794.328,0.00
7.817,2788.999,0.00
7.833,2783.146,0.00
7.850,2777.425,0.00
7.867,2772.400,0.00
7.883,2767.889,0.00
7.900,2762.498,0.00
7.917,2755.933,0.00
7.933,2748.987,0.00
7.950,2742.576,0.00
7.967,2737.079,0.00
7.983,2731.522,0.00
8.000,2725.598,0.00
8.017,2720.130,0.00
8.033,2715.435,0.00
8.050,2710.455,0.00
8.067,2703.787,0.00
8.083,2696.526,0.00
8.100,2689.866,0.00
8.117,2684.505,0.00
8.133,2679.685,0.00
8.150,2674.331,0.00
8.167,2669.093,0.00
8.183,2664.179,0.00
8.200,2659.232,0.00
8.217,2653.826,0.00
8.233,2648.341,0.00
8.250,2642.981,0.00
8.267,2638.112,0.00
8.283,2633.890,0.00
8.300,2629.576,0.00
8.317,2625.490,0.00
8.333,2621.765,0.00
8.350,2617.890,0.00
8.367,2612.922,0.00
8.383,2607.860,0.00
8.400,2604.008,0.00
8.417,2599.548,0.00
8.433,2595.628,0.00
8.450,2592.623,0.00
8.467,2590.477,0.00
8.483,2589.138,0.00
8.500,2588.556,0.00
8.517,2587.011,0.00
8.533,2584.656,0.00
8.550,2583.067,0.00
8.567,2583.142,0.00
8.583,2583.154,0.00
8.600,2582.916,0.00
8.617,2582.407,0.00
8.633,2581.321,0.00
8.650,2579.474,0.00
8.667,2578.590,0.00
8.683,2578.492,0.00
8.700,2578.494,0.00
8.717,2578.506,0.00
8.733,2577.519,0.00
8.750,2575.626,0.00
8.767,2573.033,0.00
8.783,2570.306,0.00
8.800,2567.408,0.00
8.817,2563.396,0.00
8.833,2559.426,0.00
8.850,2557.340,0.00
8.867,2555.662,0.00
8.883,2555.010,0.00
8.900,2552.782,0.00
8.917,2550.255,0.00
8.933,2547.607,0.00
8.950,2545.933,0.00
8.967,2544.661,0.00
8.983,2543.057,0.00
9.000,2541.345,0.00
9.017,2540.637,0.00
9.033,2540.143,0.00
9.050,2538.579,0.00
9.067,2535.833,0.00
9.083,2532.743,0.00
9.100,2530.774,0.00
9.117,2529.640,0.00
9.133,2527.787,0.00
9.150,2525.521,0.00
9.167,2521.984,0.00
9.183,2517.750,0.00
9.200,2514.029,0.00
9.217,2508.556,0.00
9.233,2502.008,0.00
9.250,2505.514,0.00
9.267,2495.475,0.00
9.283,2466.428,0.00
9.300,2471.771,0.00
9.317,2540.194,0.00
9.333,2650.845,0.00
9.350,2752.783,0.00
9.367,2801.502,0.00
9.383,2788.476,0.00
9.400,2753.445,0.00
9.417,2742.172,0.00
9.433,2737.633,0.00
9.450,2725.157,0.00
9.467,2715.267,0.00
9.483,2704.950,0.00
9.500,2693.094,0.00
9.517,2679.188,0.00
9.533,2666.090,0.00
9.550,2654.904,0.00
9.567,2645.998,0.00
9.583,2639.831,0.00
9.600,2630.686,0.00
9.617,2619.553,0.00
9.633,2612.838,0.00
9.650,2615.198,0.00
9.667,2635.121,0.00
9.683,2664.951,0.00
9.700,2687.601,0.00
9.717,2693.399,0.00
9.733,2675.270,0.00
9.750,2651.405,0.00
9.767,2646.624,0.00
9.783,2678.164,0.00
9.800,2753.674,0.00
9.817,2851.777,0.00
9.833,2935.430,0.00
9.850,2967.203,0.00
9.867,3005.052,0.00
9.883,3041.664,0.00
9.900,2999.655,0.00
9.917,2804.073,0.00
9.933,2402.164,0.00
9.950,1881.909,0.00
9.967,1373.081,0.00
9.983,962.391,0.00
10.000,647.889,0.00
10.017,401.285,0.00
10.033,242.242,0.00
10.050,144.135,0.00
10.067,90.810,0.00
10.083,56.331,0.00
10.100,16.055,0.00
10.117,-6.161,0.00
10.133,-16.324,0.00
10.150,-16.797,0.00
10.167,-14.399,0.00
10.183,-12.617,0.00
10.200,-10.998,0.00
10.217,-8.294,0.00
10.233,-5.205,0.00
10.250,-2.770,0.00
10.267,-1.725,0.00
10.283,-2.020,0.00
10.300,-2.908,0.00
10.317,-3.290,0.00
10.333,-2.655,0.00
10.350,-2.062,0.00
10.367,-1.935,0.00
10.383,-1.360,0.00
10.400,-0.627,0.00
10.417,-0.235,0.00
10.433,-0.395,0.00
10.450,-0.478,0.00
10.467,-0.469,0.00
10.483,-0.522,0.00
10.500,-0.775,0.00
10.517,-1.357,0.00
10.533,-2.123,0.00
10.550,-2.525,0.00
10.567,-2.275,0.00
10.583,-2.082,0.00
10.600,-2.116,0.00
10.617,-2.096,0.00
10.633,-2.142,0.00
10.650,-2.087,0.00
10.667,-1.931,0.00
10.683,-1.770,0.00
10.700,-1.666,0.00
10.717,-1.589,0.00
10.733,-1.526,0.00
10.750,-1.451,0.00
10.767,-1.064,0.00
10.783,-0.237,0.00
10.800,0.635,0.00
10.817,1.118,0.00
10.833,0.968,0.00
10.850,0.397,0.00
10.867,-0.134,0.00
10.883,-0.360,0.00
10.900,-0.411,0.00
10.917,-0.464,0.00
10.933,-0.470,0.00
10.950,-0.457,0.00
10.967,-0.450,0.00
10.983,-0.439,0.00
11.000,-0.420,0.00
11.017,-0.364,0.00
11.033,-0.294,0.00
11.050,-0.242,0.00
11.067,-0.169,0.00
11.083,-0.016,0.00
11.100,0.144,0.00
11.117,0.229,0.00
11.133,0.273,0.00
11.150,0.347,0.00
11.167,0.469,0.00
11.183,0.586,0.00
11.200,0.674,0.00
11.217,0.732,0.00
11.233,0.774,0.00
11.250,0.794,0.00
11.267,0.740,0.00
11.283,0.721,0.00
11.300,0.690,0.00
11.317,0.720,0.00
11.333,0.670,0.00
11.350,0.620,0.00
11.367,0.697,0.00
11.383,0.969,0.00
11.400,1.375,0.00
11.417,1.662,0.00
11.433,1.825,0.00
11.450,1.890,0.00
11.467,1.881,0.00
11.483,2.312,0.00
11.500,2.924,0.00
11.517,3.118,0.00
11.533,2.330,0.00
11.550,0.807,0.00
11.567,-0.746,0.00
11.583,-1.744,0.00
11.600,-1.824,0.00
11.617,-1.477,0.00
11.633,-1.119,0.00
11.650,-0.650,0.00
11.667,-0.249,0.00
11.683,-0.068,0.00
11.700,-0.245,0.00
11.717,-0.553,0.00
11.733,-0.779,0.00
11.750,-1.030,0.00
11.767,-1.168,0.00
11.783,-1.215,0.00
11.800,-1.157,0.00
11.817,-1.072,0.00
11.833,-1.041,0.00
11.850,-1.130,0.00
11.867,-1.253,0.00
11.883,-1.289,0.00
11.900,-1.250,0.00
11.917,-1.272,0.00
11.933,-1.235,0.00
11.950,-1.188,0.00
11.967,-1.076,0.00
11.983,-1.066,0.00
12.000,-1.110,0.00
12.017,-1.211,0.00
12.033,-1.418,0.00
12.050,-1.422,0.00
12.067,-1.044,0.00
12.083,1.670,0.00
12.100,5.614,0.00
12.117,2.133,0.00
12.133,2.167,0.00
12.150,101.160,0.00
12.167,409.570,0.00
12.183,851.171,0.00
12.200,1163.174,0.00
12.217,1126.835,1.41
12.233,765.599,1.43
12.250,318.969,1.45
12.267,36.798,1.46
12.283,-26.245,1.48
12.300,-0.223,1.50
12.317,7.937,1.52
12.333,0.847,1.54
12.350,-1.847,1.55
12.367,-1.402,1.57
12.383,-0.909,1.59
12.400,-0.697,1.61
12.417,-0.578,1.63
12.433,-0.539,1.65
12.450,-0.749,1.67
12.467,-0.945,1.69
12.483,-1.051,1.71
12.500,-1.161,1.73
12.517,-1.235,1.75
12.533,-1.165,1.77
12.550,-1.146,1.79
12.567,-1.199,1.81
12.583,-1.232,1.83
12.600,-1.226,1.85
12.617,-1.284,1.88
12.633,-1.239,1.90
12.650,-1.188,1.92
12.667,-1.326,1.94
12.683,-1.392,1.96
12.700,-1.206,1.98
12.717,-0.749,2.01
12.733,-0.243,2.03
12.750,-0.003,2.05
12.767,-0.137,2.08
12.783,-0.477,2.10
12.800,-0.694,2.12
12.817,-0.664,2.14
12.833,-0.585,2.17
12.850,-0.555,2.19
12.867,-0.617,2.22
12.883,-0.666,2.24
12.900,-0.735,2.27
12.917,-0.790,2.29
12.933,-0.770,2.31
12.950,-0.786,2.34
12.967,-0.748,2.37
12.983,-0.651,2.39
13.000,-0.596,2.42
13.017,-0.574,2.44
13.033,-0.611,2.47
13.050,-0.585,2.49
13.067,-0.502,2.52
13.083,-0.292,2.55
13.100,0.119,2.57
13.117,0.394,2.60
13.133,0.516,2.63
13.150,0.411,2.66
13.167,0.074,2.68
13.183,-0.166,2.71
13.200,-0.252,2.74
13.217,-0.255,2.77
13.233,-0.301,2.80
13.250,-0.423,2.82
13.267,-0.511,2.85
13.283,-0.565,2.88
13.300,-0.541,2.91
13.317,-0.520,2.94
13.333,-0.507,2.97
13.350,-0.469,3.00
13.367,-0.423,3.03
13.383,-0.377,3.06
13.400,-0.307,3.09
13.417,-0.274,3.12
13.433,-0.260,3.15
13.450,-0.320,3.18
13.467,-0.469,3.22
13.483,-0.578,3.25
13.500,-0.599,3.28
13.517,-0.522,3.31
13.533,-0.387,3.34
13.550,-0.314,3.38
13.567,-0.316,3.41
13.583,-0.354,3.44
13.600,-0.365,3.48
13.617,-0.328,3.51
13.633,-0.239,3.54
13.650,-0.199,3.58
13.667,-0.181,3.61
13.683,-0.164,3.64
13.700,-0.210,3.68
13.717,-0.259,3.71
13.733,-0.263,3.75
13.750,-0.241,3.78
13.767,-0.234,3.82
13.783,-0.242,3.86
13.800,-0.286,3.89
13.817,-0.300,3.93
13.833,-0.196,3.96
13.850,-0.073,4.00
13.867,-0.013,4.04
13.883,-0.002,4.07
13.900,0.017,4.11
13.917,0.040,4.15
13.933,0.034,4.19
13.950,-0.003,4.23
13.967,-0.029,4.26
13.983,-0.018,4.30
14.000,0.063,4.34
14.017,0.162,4.38
14.033,0.178,4.42
14.050,0.172,4.46
14.067,0.222,4.50
14.083,0.294,4.54
14.100,0.288,4.58
14.117,0.257,4.62
14.133,0.198,4.66
14.150,0.088,4.70
14.167,0.060,4.74
14.183,0.104,4.78
14.200,0.154,4.82
14.217,0.145,4.87
14.233,0.123,4.91
14.250,0.154,4.95
14.267,0.195,4.99
14.283,0.243,5.04
14.300,0.251,5.08
14.317,0.211,5.12
14.333,0.204,5.17
14.350,0.230,5.21
14.367,0.261,5.26
14.383,0.213,5.30
14.400,0.203,5.35
14.417,0.232,5.39
14.433,0.268,5.44
14.450,0.312,5.48
14.467,0.250,5.53
14.483,0.249,5.57
14.500,0.528,5.62
14.517,0.827,5.67
14.533,0.980,5.71
14.550,0.936,5.76
14.567,0.903,5.81
14.583,0.965,5.85
14.600,1.211,5.90
14.617,1.552,5.95
14.633,1.719,6.00
14.650,1.751,6.05
14.667,1.770,6.10
14.683,1.723,6.15
14.700,1.634,6.20
14.717,1.509,6.25
14.733,1.443,6.30
14.750,1.395,6.35
14.767,1.280,6.40
14.783,1.202,6.45
14.800,1.160,6.50
14.817,1.124,6.55
14.833,1.122,6.60
14.850,1.142,6.65
14.867,1.330,6.71
14.883,1.617,6.76
14.900,2.193,6.81
14.917,3.128,6.86
14.933,4.025,6.92
14.950,4.786,6.97
14.967,5.293,7.02
14.983,5.614,7.08
15.000,5.751,7.13
15.017,5.910,7.19
15.033,6.067,7.24
15.050,5.951,7.30
15.067,5.638,7.35
15.083,5.337,7.41
15.100,5.130,7.46
15.117,5.276,7.52
15.133,5.767,7.58
15.150,6.492,7.63
15.167,7.673,7.69
15.183,9.498,7.75
15.200,11.417,7.81
15.217,12.534,7.87
15.233,12.181,7.92
15.250,10.421,7.98
15.267,8.022,8.04
15.283,5.919,8.10
15.300,4.746,8.16
15.317,4.295,8.22
15.333,4.465,8.28
15.350,5.031,8.34
15.367,5.677,8.40
15.383,6.147,8.46
15.400,6.654,8.52
15.417,7.047,8.58
15.433,7.444,8.65
15.450,7.759,8.71
15.467,8.847,8.77
15.483,11.085,8.83
15.500,13.949,8.90
15.517,19.575,8.96
15.533,30.463,9.02
15.550,45.420,9.09
15.567,59.561,9.15
15.583,66.695,9.22
15.600,63.734,9.28
15.617,52.346,9.35
15.633,37.967,9.41
15.650,24.959,9.48
15.667,14.143,9.54
15.683,6.345,9.61
15.700,1.529,9.67
15.717,-1.224,9.74
15.733,-2.888,9.81
15.750,-3.993,9.88
15.767,-4.521,9.94
15.783,-4.533,10.01
15.800,-4.481,10.08
15.817,-4.493,10.15
15.833,-4.562,10.22
15.850,-4.563,10.29
15.867,-4.417,10.36
15.883,-4.175,10.43
15.900,-4.011,10.50
15.917,-3.997,10.57
15.933,-4.060,10.64
15.950,-4.025,10.71
15.967,-3.847,10.78
15.983,-3.470,10.85
16.000,-3.003,10.92
16.017,-2.413,11.00
16.033,-1.750,11.07
16.050,-1.119,11.14
16.067,-0.630,11.21
16.083,-0.371,11.29
16.100,-0.168,11.36
16.117,0.229,11.44
16.133,1.132,11.51
16.150,2.322,11.59
16.167,3.603,11.66
16.183,5.076,11.74
16.200,6.686,11.81
16.217,8.148,11.89
16.233,8.731,11.96
16.250,7.846,12.04
16.267,5.516,12.12
16.283,2.717,12.19
16.300,0.494,12.27
16.317,-0.691,12.35
16.333,-0.900,12.43
16.350,-0.695,12.51
16.367,-0.393,12.59
16.383,-0.141,12.66
16.400,0.075,12.74
16.417,0.339,12.82
16.433,0.682,12.90
16.450,1.182,12.98
16.467,1.656,13.06
16.483,2.069,13.15
16.500,2.261,13.23
16.517,2.186,13.31
16.533,1.897,13.39
16.550,1.457,13.47
16.567,1.040,13.56
16.583,0.814,13.64
16.600,1.083,13.72
16.617,1.866,13.80
16.633,3.079,13.89
16.650,4.542,13.97
16.667,5.994,14.06
16.683,7.287,14.14
16.700,8.083,14.23
16.717,7.992,14.31
16.733,6.637,14.40
16.750,4.282,14.48
16.767,1.821,14.57
16.783,0.006,14.66
16.800,-0.722,14.74
16.817,-0.578,14.83
16.833,-0.107,14.92
16.850,0.438,15.01
16.867,0.899,15.10
16.883,1.173,15.18
16.900,1.197,15.27
16.917,1.036,15.36
16.933,0.899,15.45
16.950,0.939,15.54
16.967,1.120,15.63
16.983,1.255,15.72
17.000,1.273,15.81
17.017,1.290,15.90
17.033,1.316,16.00
17.050,1.386,16.09
17.067,1.524,16.18
17.083,1.685,16.27
17.100,1.862,16.37
17.117,2.070,16.46
17.133,2.268,16.55
17.150,2.682,16.65
17.167,4.111,16.74
17.183,7.845,16.83
17.200,15.185,16.93
17.217,26.088,17.02
17.233,37.858,17.12
17.250,45.795,17.22
17.267,46.137,17.31
17.283,38.413,17.41
17.300,26.970,17.51
17.317,17.471,17.60
17.333,12.120,17.70
17.350,9.613,17.80
17.367,7.646,17.90
17.383,5.166,17.99
17.400,2.954,18.09
17.417,2.076,18.19
17.433,2.603,18.29
17.450,3.335,18.39
17.467,4.019,18.49
17.483,4.374,18.59
17.500,4.425,18.69
17.517,4.866,18.79
17.533,6.188,18.89
17.550,8.009,19.00
17.567,9.240,19.10
17.583,8.684,19.20
17.600,6.436,19.30
17.617,3.824,19.41
17.633,2.125,19.51
17.650,1.780,19.61
17.667,2.493,19.72
17.683,3.596,19.82
17.700,4.667,19.93
17.717,5.588,20.03
17.733,6.485,20.14
17.750,7.393,20.24
17.767,8.668,20.35
17.783,9.988,20.45
17.800,10.918,20.56
17.817,12.675,20.67
17.833,15.070,20.77
17.850,16.351,20.88
17.867,15.103,20.99
17.883,11.504,21.10
17.900,7.291,21.21
17.917,4.638,21.32
17.933,4.773,21.43
17.950,6.381,21.53
17.967,8.138,21.64
17.983,10.362,21.76
18.000,12.342,21.87
18.017,13.372,21.98
18.033,13.831,22.09
18.050,15.123,22.20
18.067,18.754,22.31
18.083,24.788,22.42
18.100,31.088,22.54
18.117,34.484,22.65
18.133,34.174,22.76
18.150,36.258,22.88
18.167,55.233,22.99
18.183,105.967,23.10
18.200,186.890,23.22
18.217,269.839,23.33
18.233,315.427,23.45
18.250,302.312,23.56
18.267,244.727,23.68
18.283,182.870,23.80
18.300,155.063,23.91
18.317,174.972,24.03
18.333,228.827,24.15
18.350,286.539,24.27
18.367,318.157,24.38
18.383,307.595,24.50
18.400,265.608,24.62
18.417,226.612,24.74
18.433,225.563,24.86
18.450,268.555,24.98
18.467,325.592,25.10
18.483,353.239,25.22
18.500,327.086,25.34
18.517,255.925,25.46
18.533,171.365,25.58
18.550,102.436,25.70
18.567,60.171,25.82
18.583,39.849,25.95
18.600,32.769,26.07
18.617,32.530,26.19
18.633,36.802,26.32
18.650,44.814,26.44
18.667,54.587,26.56
18.683,61.359,26.69
18.700,60.673,26.81
18.717,52.383,26.94
18.733,39.966,27.06
18.750,28.354,27.19
18.767,21.216,27.31
18.783,18.503,27.44
18.800,18.399,27.57
18.817,18.997,27.69
18.833,19.020,27.82
18.850,18.145,27.95
18.867,16.941,28.08
18.883,16.209,28.20
18.900,16.261,28.33
18.917,17.124,28.46
18.933,18.514,28.59
18.950,19.847,28.72
18.967,20.797,28.85
18.983,21.199,28.98
19.000,20.498,29.11
19.017,19.132,29.24
19.033,17.438,29.37
19.050,16.039,29.50
19.067,15.125,29.64
19.083,14.701,29.77
19.100,14.404,29.90
19.117,13.901,30.03
19.133,13.053,30.17
19.150,12.215,30.30
19.167,11.479,30.44
19.183,11.270,30.57
19.200,11.780,30.70
19.217,13.305,30.84
19.233,15.386,30.97
19.250,17.573,31.11
19.267,19.163,31.25
19.283,19.781,31.38
19.300,19.400,31.52
19.317,18.558,31.66
19.333,17.900,31.79
19.350,17.696,31.93
19.367,17.921,32.07
19.383,18.470,32.21
19.400,19.175,32.34
19.417,20.271,32.48
19.433,21.860,32.62
19.450,23.876,32.76
19.467,25.975,32.90
19.483,27.836,33.04
19.500,29.340,33.18
19.517,30.311,33.32
19.533,31.156,33.47
19.550,32.129,33.61
19.567,33.245,33.75
19.583,34.783,33.89
19.600,36.780,34.03
19.617,39.192,34.18
19.633,41.724,34.32
19.650,43.491,34.46
19.667,43.426,34.61
19.683,41.010,34.75
19.700,36.926,34.90
19.717,32.401,35.04
19.733,28.863,35.19
19.750,27.499,35.33
19.767,28.691,35.48
19.783,32.352,35.62
19.800,37.957,35.77
19.817,44.692,35.92
19.833,51.651,36.06
19.850,59.104,36.21
19.867,69.332,36.36
19.883,88.009,36.51
19.900,122.174,36.65
19.917,173.724,36.80
19.933,235.942,36.95
19.950,296.117,37.10
19.967,341.344,37.25
19.983,363.638,37.40
20.000,364.245,37.55
20.017,350.592,37.70
20.033,329.751,37.85
20.050,305.321,38.01
20.067,277.493,38.16
20.083,244.451,38.31
20.100,204.904,38.46
20.117,162.775,38.61
20.133,124.012,38.77
20.150,92.296,38.92
20.167,69.029,39.07
20.183,52.952,39.23
20.200,41.598,39.38
20.217,32.947,39.54
20.233,26.663,39.69
20.250,22.508,39.85
20.267,19.460,40.00
20.283,17.325,40.16
20.300,15.848,40.32
20.317,15.025,40.47
20.333,14.116,40.63
20.350,13.656,40.79
20.367,15.756,40.94
20.383,20.957,41.10
20.400,28.742,41.26
20.417,39.520,41.42
20.433,55.486,41.58
20.450,79.591,41.74
20.467,114.014,41.90
20.483,159.390,42.06
20.500,213.466,42.22
20.517,274.921,42.38
20.533,340.708,42.54
20.550,401.341,42.70
20.567,443.119,42.86
20.583,453.849,43.02
20.600,428.796,43.18
20.617,373.574,43.35
20.633,301.623,43.51
20.650,227.914,43.67
20.667,162.941,43.83
20.683,112.397,44.00
20.700,77.047,44.16
20.717,54.290,44.33
20.733,40.945,44.49
20.750,34.483,44.66
20.767,31.182,44.82
20.783,33.544,44.99
20.800,50.426,45.15
20.817,93.991,45.32
20.833,176.889,45.49
20.850,303.210,45.65
20.867,458.217,45.82
20.883,615.416,45.99
20.900,745.859,46.16
20.917,826.785,46.32
20.933,847.374,46.49
20.950,814.496,46.66
20.967,742.128,46.83
20.983,645.634,47.00
21.000,539.401,47.17
21.017,434.003,47.34
21.033,334.667,47.51
21.050,247.947,47.68
21.067,178.056,47.85
21.083,126.101,48.02
21.100,90.232,48.19
21.117,67.366,48.37
21.133,54.189,48.54
21.150,47.008,48.71
21.167,43.863,48.88
21.183,44.349,49.06
21.200,48.236,49.23
21.217,55.625,49.40
21.233,66.107,49.58
21.250,78.511,49.75
21.267,91.173,49.93
21.283,102.853,50.10
21.300,112.329,50.28
21.317,118.013,50.45
21.333,119.606,50.63
21.350,117.148,50.80
21.367,111.090,50.98
21.383,102.735,51.16
21.400,93.669,51.34
21.417,84.934,51.51
21.433,77.018,51.69
21.450,70.250,51.87
21.467,64.803,52.05
21.483,61.063,52.23
21.500,59.019,52.41
21.517,58.588,52.58
21.533,58.591,52.76
21.550,57.991,52.94
21.567,56.283,53.12
21.583,53.295,53.31
21.600,48.775,53.49
21.617,43.422,53.67
21.633,37.684,53.85
21.650,32.300,54.03
21.667,27.968,54.21
21.683,25.091,54.40
21.700,23.206,54.58
21.717,22.061,54.76
21.733,21.573,54.94
21.750,21.318,55.13
21.767,21.216,55.31
21.783,21.022,55.50
21.800,20.546,55.68
21.817,19.707,55.87
21.833,18.667,56.05
21.850,17.587,56.24
21.867,16.890,56.42
21.883,16.799,56.61
21.900,17.324,56.80
21.917,18.416,56.98
21.933,20.483,57.17
21.950,23.399,57.36
21.967,28.199,57.54
21.983,35.776,57.73
22.000,46.842,57.92
22.017,61.299,58.11
22.033,79.086,58.30
22.050,100.190,58.49
22.067,123.771,58.68
22.083,149.121,58.87
22.100,175.079,59.06
22.117,200.557,59.25
22.133,224.435,59.44
22.150,244.586,59.63
22.167,257.306,59.82
22.183,259.320,60.01
22.200,249.696,60.20
22.217,230.160,60.39
22.233,203.564,60.59
22.250,172.922,60.78
22.267,140.477,60.97
22.283,108.972,61.17
22.300,80.720,61.36
22.317,57.815,61.55
22.333,40.779,61.75
22.350,29.282,61.94
22.367,22.017,62.14
22.383,17.616,62.33
22.400,15.079,62.53
22.417,13.473,62.72
22.433,12.477,62.92
22.450,12.332,63.11
22.467,13.499,63.31
22.483,16.350,63.51
22.500,21.004,63.70
22.517,27.117,63.90
22.533,33.538,64.10
22.550,39.657,64.30
22.567,45.304,64.50
22.583,50.610,64.69
22.600,56.059,64.89
22.617,62.649,65.09
22.633,70.643,65.29
22.650,80.347,65.49
22.667,91.742,65.69
22.683,103.941,65.89
22.700,115.353,66.09
22.717,124.493,66.29
22.733,130.341,66.50
22.750,132.884,66.70
22.767,132.553,66.90
22.783,130.025,67.10
22.800,125.723,67.30
22.817,119.941,67.51
22.833,112.419,67.71
22.850,103.169,67.91
22.867,92.244,68.11
22.883,79.934,68.32
22.900,67.139,68.52
22.917,54.801,68.73
22.933,43.390,68.93
22.950,33.439,69.14
22.967,25.463,69.34
22.983,19.735,69.55
23.000,16.659,69.75
23.017,16.182,69.96
23.033,17.904,70.17
23.050,21.182,70.37
23.067,24.813,70.58
23.083,27.485,70.79
23.100,28.461,70.99
23.117,27.830,71.20
23.133,26.085,71.41
23.150,23.661,71.62
23.167,20.720,71.83
23.183,17.049,72.03
23.200,13.038,72.24
23.217,9.529,72.45
23.233,7.183,72.66
23.250,6.171,72.87
23.267,6.041,73.08
23.283,6.403,73.29
23.300,6.905,73.50
23.317,7.347,73.72
23.333,7.627,73.93
23.350,7.766,74.14
23.367,7.925,74.35
23.383,8.043,74.56
23.400,8.027,74.77
23.417,8.035,74.99
23.433,8.160,75.20
23.450,8.298,75.41
23.467,8.239,75.63
23.483,7.951,75.84
23.500,7.494,76.05
23.517,7.071,76.27
23.533,6.841,76.48
23.550,6.752,76.70
23.567,6.855,76.91
23.583,7.439,77.13
23.600,8.658,77.35
23.617,10.406,77.56
23.633,12.688,77.78
23.650,15.416,77.99
23.667,18.394,78.21
23.683,21.238,78.43
23.700,23.449,78.65
23.717,24.863,78.86
23.733,25.493,79.08
23.750,25.360,79.30
23.767,24.534,79.52
23.783,22.986,79.74
23.800,20.676,79.95
23.817,17.703,80.17
23.833,14.583,80.39
23.850,11.696,80.61
23.867,9.133,80.83
23.883,6.921,81.05
23.900,4.990,81.27
23.917,3.283,81.49
23.933,1.934,81.72
23.950,0.892,81.94
23.967,0.126,82.16
23.983,-0.384,82.38
24.000,-0.766,82.60
24.017,-1.048,82.83
24.033,-1.312,83.05
24.050,-1.476,83.27
24.067,-1.525,83.49
24.083,-1.509,83.72
24.100,-1.471,83.94
24.117,-1.538,84.17
24.133,-1.573,84.39
24.150,-1.554,84.61
24.167,-1.468,84.84
24.183,-1.340,85.06
24.200,-1.267,85.29
24.217,-1.127,85.51
24.233,-0.907,85.74
24.250,-0.525,85.97
24.267,-0.114,86.19
24.283,0.205,86.42
24.300,0.398,86.65
24.317,0.538,86.87
24.333,0.758,87.10
24.350,0.928,87.33
24.367,0.955,87.56
24.383,0.927,87.78
24.400,0.922,88.01
24.417,1.065,88.24
24.433,1.341,88.47
24.450,1.692,88.70
24.467,2.093,88.93
24.483,2.475,89.16
24.500,2.883,89.39
24.517,3.241,89.62
24.533,3.483,89.85
24.550,3.703,90.08
24.567,3.827,90.31
24.583,3.764,90.54
24.600,3.517,90.77
24.617,3.013,91.00
24.633,2.440,91.24
24.650,1.693,91.47
24.667,1.084,91.70
24.683,0.619,91.93
24.700,0.274,92.17
24.717,0.080,92.40
24.733,-0.141,92.63
24.750,-0.446,92.87
24.767,-0.660,93.10
24.783,-0.818,93.33
24.800,-0.934,93.57
24.817,-1.166,93.80
24.833,-1.365,94.04
24.850,-1.509,94.27
24.867,-1.572,94.51
24.883,-1.572,94.74
24.900,-1.617,94.98
24.917,-1.603,95.22
24.933,-1.544,95.45
24.950,-1.465,95.69
24.967,-1.430,95.93
24.983,-1.343,96.16
25.000,-1.183,96.40
25.017,-0.823,96.64
25.033,-0.428,96.88
25.050,-0.168,97.11
25.067,0.162,97.35
25.083,0.925,97.59
25.100,2.008,97.83
25.117,3.341,98.07
25.133,4.886,98.31
25.150,6.792,98.55
25.167,9.450,98.79
25.183,13.485,99.03
25.200,18.820,99.27
25.217,25.300,99.51
25.233,32.506,99.75
25.250,39.739,99.99
25.267,46.234,100.23
25.283,51.103,100.47
25.300,54.194,100.71
25.317,55.093,100.96
25.333,54.105,101.20
25.350,51.688,101.44
25.367,47.987,101.68
25.383,43.595,101.93
25.400,38.862,102.17
25.417,34.217,102.41
25.433,30.418,102.66
25.450,27.393,102.90
25.467,25.561,103.14
25.483,24.387,103.39
25.500,23.889,103.63
25.517,23.876,103.88
25.533,24.069,104.12
25.550,24.212,104.37
25.567,23.902,104.61
25.583,22.898,104.86
25.600,21.315,105.10
25.617,19.463,105.35
25.633,17.640,105.60
25.650,15.738,105.84
25.667,13.851,106.09
25.683,12.064,106.34
25.700,10.854,106.58
25.717,10.234,106.83
25.733,10.525,107.08
25.750,11.847,107.33
25.767,14.023,107.57
25.783,17.089,107.82
25.800,20.486,108.07
25.817,23.745,108.32
25.833,26.527,108.57
25.850,28.738,108.82
25.867,30.385,109.07
25.883,31.031,109.32
25.900,30.817,109.57
25.917,29.918,109.82
25.933,28.288,110.07
25.950,26.258,110.32
25.967,24.123,110.57
25.983,22.156,110.82
26.000,20.597,111.07
26.017,19.494,111.32
26.033,18.745,111.57
26.050,18.185,111.83
26.067,18.009,112.08
26.083,18.135,112.33
26.100,18.193,112.58
26.117,17.972,112.84
26.133,17.424,113.09
26.150,16.475,113.34
26.167,15.184,113.60
26.183,13.772,113.85
26.200,12.276,114.10
26.217,10.801,114.36
26.233,9.247,114.61
26.250,7.561,114.87
26.267,5.895,115.12
26.283,4.478,115.38
26.300,3.512,115.63
26.317,2.851,115.89
26.333,2.351,116.14
26.350,1.964,116.40
26.367,1.603,116.65
26.383,1.286,116.91
26.400,0.968,117.17
26.417,0.636,117.42
26.433,0.336,117.68
26.450,0.082,117.94
26.467,-0.093,118.20
26.483,-0.179,118.45
26.500,-0.226,118.71
26.517,-0.309,118.97
26.533,-0.449,119.23
26.550,-0.350,119.49
26.567,0.196,119.74
26.583,0.811,120.00
26.600,1.126,120.26
26.617,0.945,120.52
26.633,0.444,120.78
26.650,0.033,121.04
26.667,-0.097,121.30
26.683,-0.059,121.56
26.700,-0.131,121.82
26.717,-0.193,122.08
26.733,-0.028,122.34
26.750,0.308,122.60
26.767,0.768,122.86
26.783,1.243,123.12
26.800,1.739,123.39
26.817,2.291,123.65
26.833,3.010,123.91
26.850,3.918,124.17
26.867,4.768,124.43
26.883,5.399,124.70
26.900,5.758,124.96
26.917,5.976,125.22
26.933,6.177,125.49
26.950,6.309,125.75
26.967,6.296,126.01
26.983,6.047,126.28
27.000,5.525,126.54
27.017,4.799,126.80
27.033,4.003,127.07
27.050,3.168,127.33
27.067,2.328,127.60
27.083,1.645,127.86
27.100,1.108,128.13
27.117,0.576,128.39
27.133,0.156,128.66
27.150,-0.030,128.92
27.167,-0.192,129.19
27.183,-0.360,129.46
27.200,-0.438,129.72
27.217,-0.435,129.99
27.233,-0.452,130.26
27.250,-0.426,130.52
27.267,-0.446,130.79
27.283,-0.546,131.06
27.300,-0.648,131.32
27.317,-0.657,131.59
27.333,-0.677,131.86
27.350,-0.636,132.13
27.367,-0.506,132.40
27.383,-0.393,132.67
27.400,-0.345,132.93
27.417,-0.370,133.20
27.433,-0.497,133.47
27.450,-0.588,133.74
27.467,-0.622,134.01
27.483,-0.648,134.28
27.500,-0.742,134.55
27.517,-0.841,134.82
27.533,-0.984,135.09
27.550,-1.083,135.36
27.567,-1.059,135.63
27.583,-1.061,135.90
27.600,-1.089,136.17
27.617,-1.066,136.44
27.633,-1.069,136.71
27.650,-1.158,136.99
27.667,-1.240,137.26
27.683,-1.246,137.53
27.700,-1.104,137.80
27.717,-0.849,138.07
27.733,-0.566,138.35
27.750,-0.561,138.62
27.767,-0.569,138.89
27.783,-0.361,139.17
27.800,0.039,139.44
27.817,0.348,139.71
27.833,0.415,139.99
27.850,0.232,140.26
27.867,0.055,140.53
27.883,0.049,140.81
27.900,0.120,141.08
27.917,0.009,141.36
27.933,-0.066,141.63
27.950,-0.125,141.91
27.967,-0.068,142.18
27.983,-0.095,142.46
28.000,-0.183,142.73
28.017,-0.373,143.01
28.033,-0.475,143.28
28.050,-0.431,143.56
28.067,-0.459,143.83
28.083,-0.487,144.11
28.100,-0.455,144.39
28.117,-0.408,144.66
28.133,-0.334,144.94
28.150,-0.295,145.22
28.167,-0.253,145.49
28.183,-0.316,145.77
28.200,-0.331,146.05
28.217,-0.371,146.33
28.233,-0.479,146.60
28.250,-0.503,146.88
28.267,-0.470,147.16
28.283,-0.327,147.44
28.300,-0.334,147.72
28.317,-0.457,148.00
28.333,-0.661,148.28
28.350,-0.701,148.55
28.367,-0.526,148.83
28.383,-0.297,149.11
28.400,-0.251,149.39
28.417,-0.330,149.67
28.433,-0.499,149.95
28.450,-0.493,150.23
28.467,-0.450,150.51
28.483,-0.356,150.79
28.500,-0.464,151.07
28.517,-0.555,151.35
28.533,-0.561,151.64
28.550,-0.401,151.92
28.567,-0.345,152.20
28.583,-0.371,152.48
28.600,-0.249,152.76
28.617,0.166,153.04
28.633,0.703,153.33
28.650,1.059,153.61
28.667,0.972,153.89
28.683,0.558,154.17
28.700,0.151,154.45
28.717,-0.118,154.74
28.733,-0.136,155.02
28.750,-0.178,155.30
28.767,-0.216,155.59
28.783,-0.168,155.87
28.800,-0.236,156.15
28.817,-0.308,156.44
28.833,-0.315,156.72
28.850,-0.312,157.01
28.867,-0.311,157.29
28.883,-0.367,157.57
28.900,-0.294,157.86
28.917,-0.280,158.14
28.933,-0.270,158.43
28.950,-0.150,158.71
28.967,-0.071,159.00
28.983,-0.055,159.28
29.000,-0.101,159.57
29.017,-0.160,159.86
29.033,-0.043,160.14
29.050,0.185,160.43
29.067,0.387,160.71
29.083,0.346,161.00
29.100,0.163,161.29
29.117,0.019,161.57
29.133,0.041,161.86
29.150,0.074,162.15
29.167,-0.043,162.44
29.183,-0.202,162.72
29.200,-0.239,163.01
29.217,-0.075,163.30
29.233,0.069,163.59
29.250,0.049,163.87
29.267,-0.044,164.16
29.283,0.040,164.45
29.300,0.326,164.74
29.317,0.569,165.03
29.333,0.559,165.32
29.350,0.385,165.60
29.367,0.156,165.89
29.383,0.114,166.18
29.400,0.096,166.47
29.417,0.027,166.76
29.433,-0.087,167.05
29.450,-0.111,167.34
29.467,-0.085,167.63
29.483,-0.033,167.92
29.500,0.002,168.21
29.517,-0.001,168.50
29.533,-0.017,168.79
29.550,-0.003,169.08
29.567,0.043,169.37
29.583,0.152,169.66
29.600,0.245,169.96
29.617,0.294,170.25
29.633,0.260,170.54
29.650,0.165,170.83
29.667,0.155,171.12
29.683,0.232,171.41
29.700,0.361,171.71
29.717,0.410,172.00
29.733,0.306,172.29
29.750,0.129,172.58
29.767,0.007,172.88
29.783,0.031,173.17
29.800,0.108,173.46
29.817,0.120,173.75
29.833,0.108,174.05
29.850,0.058,174.34
29.867,0.002,174.63
29.883,-0.025,174.93
29.900,-0.037,175.22
29.917,0.072,175.52
29.933,0.303,175.81
29.950,0.540,176.10
29.967,0.676,176.40
29.983,0.580,176.69
30.000,0.385,176.99
30.017,0.180,177.28
30.033,0.015,177.58
30.050,-0.012,177.87
30.067,0.001,178.17
30.083,-0.039,178.46
30.100,-0.102,178.76
30.117,-0.085,179.05
30.133,0.012,179.35
30.150,0.108,179.65
30.167,0.171,179.94
30.183,0.072,180.24
30.200,-0.111,180.53
30.217,-0.113,180.83
30.233,-0.003,181.13
30.250,-0.013,181.42
30.267,0.082,181.72
30.283,-0.105,182.02
30.300,-0.284,182.32
30.317,0.281,182.61
30.333,1.323,182.91
30.350,2.061,183.21
30.367,2.030,183.51
30.383,1.328,183.80
30.400,0.428,184.10
30.417,-0.021,184.40
30.433,0.213,184.70
30.450,0.233,185.00
30.467,0.104,185.29
30.483,0.021,185.59
30.500,-0.077,185.89
30.517,-0.147,186.19
30.533,-0.144,186.49
30.550,-0.066,186.79
30.567,0.012,187.09
30.583,0.060,187.39
30.600,0.014,187.69
30.617,0.005,187.99
30.633,-0.027,188.29
30.650,-0.081,188.59
30.667,-0.013,188.89
30.683,0.261,189.19
30.700,0.656,189.49
30.717,0.958,189.79
30.733,0.974,190.09
30.750,0.675,190.39
30.767,0.241,190.69
30.783,0.060,190.99
30.800,-0.014,191.29
30.817,-0.031,191.59
30.833,-0.010,191.89
30.850,0.011,192.20
30.867,-0.028,192.50
30.883,-0.085,192.80
30.900,-0.060,193.10
30.917,-0.024,193.40
30.933,0.058,193.70
30.950,0.261,194.01
30.967,0.337,194.31
30.983,0.325,194.61
31.000,0.283,194.91
31.017,0.182,195.22
31.033,-0.052,195.52
31.050,-0.126,195.82
31.067,0.063,196.13
31.083,0.216,196.43
31.100,0.281,196.73
31.117,0.299,197.04
31.133,0.161,197.34
31.150,0.026,197.64
31.167,-0.011,197.95
31.183,-0.001,198.25
31.200,-0.113,198.56
31.217,-0.015,198.86
31.233,0.222,199.16
31.250,0.282,199.47
31.267,0.223,199.77
31.283,0.008,200.08
31.300,-0.143,200.38
31.317,-0.139,200.69
31.333,0.004,200.99
31.350,0.163,201.30
31.367,0.139,201.60
31.383,0.032,201.91
31.400,-0.074,202.21
31.417,-0.134,202.52
31.433,-0.063,202.82
31.450,-0.021,203.13
31.467,0.083,203.44
31.483,0.129,203.74
31.500,0.140,204.05
31.517,0.112,204.35
31.533,-0.005,204.66
31.550,-0.094,204.97
31.567,-0.182,205.27
31.583,-0.132,205.58
31.600,-0.010,205.89
31.617,0.053,206.20
31.633,0.108,206.50
31.650,0.131,206.81
31.667,0.159,207.12
31.683,0.136,207.42
31.700,0.108,207.73
31.717,0.140,208.04
31.733,0.063,208.35
31.750,0.041,208.65
31.767,-0.063,208.96
31.783,-0.183,209.27
31.800,-0.187,209.58
31.817,-0.045,209.89
31.833,0.156,210.20
31.850,0.253,210.50
31.867,0.218,210.81
31.883,0.030,211.12
31.900,-0.088,211.43
31.917,-0.133,211.74
31.933,-0.022,212.05
31.950,0.059,212.36
31.967,0.060,212.67
31.983,-0.005,212.98
32.000,0.005,213.29
32.017,0.039,213.60
32.033,0.056,213.91
32.050,0.069,214.22
32.067,0.066,214.53
32.083,-0.040,214.84
32.100,-0.102,215.15
32.117,-0.185,215.46
32.133,-0.280,215.77
32.150,-0.340,216.08
32.167,-0.247,216.39
32.183,-0.115,216.70
32.200,0.015,217.01
32.217,0.043,217.32
32.233,0.001,217.63
32.250,-0.044,217.94
32.267,-0.087,218.25
32.283,-0.049,218.56
32.300,-0.030,218.88
32.317,-0.068,219.19
32.333,-0.155,219.50
32.350,-0.205,219.81
32.367,-0.239,220.12
32.383,-0.236,220.43
32.400,-0.180,220.75
32.417,-0.116,221.06
32.433,-0.122,221.37
32.450,-0.205,221.68
32.467,-0.180,222.00
32.483,0.007,222.31
32.500,0.211,222.62
32.517,0.391,222.93
32.533,0.379,223.25
32.550,0.225,223.56
32.567,0.006,223.87
32.583,-0.059,224.18
32.600,-0.050,224.50
32.617,-0.080,224.81
32.633,-0.049,225.12
32.650,-0.041,225.44
32.667,-0.082,225.75
32.683,-0.120,226.07
32.700,-0.186,226.38
32.717,-0.128,226.69
32.733,-0.050,227.01
32.750,0.116,227.32
32.767,0.383,227.64
32.783,0.557,227.95
32.800,0.568,228.26
32.817,0.475,228.58
32.833,0.319,228.89
32.850,0.187,229.21
32.867,0.156,229.52
32.883,0.184,229.84
32.900,0.127,230.15
32.917,0.105,230.47
32.933,0.218,230.78
32.950,0.313,231.10
32.967,0.360,231.41
32.983,0.402,231.73
33.000,0.320,232.04
33.017,0.204,232.36
33.033,0.106,232.67
33.050,-0.010,232.99
33.067,-0.139,233.31
33.083,-0.173,233.62
33.100,-0.069,233.94
33.117,0.062,234.25
33.133,0.132,234.57
33.150,0.092,234.89
33.167,-0.075,235.20
33.183,-0.212,235.52
33.200,-0.256,235.84
33.217,-0.272,236.15
33.233,-0.305,236.47
33.250,-0.366,236.79
33.267,-0.405,237.10
33.283,-0.336,237.42
33.300,-0.237,237.74
33.317,-0.187,238.05
33.333,-0.155,238.37
33.350,-0.131,238.69
33.367,-0.147,239.01
33.383,-0.189,239.32
33.400,-0.242,239.64
33.417,-0.317,239.96
33.433,-0.308,240.28
33.450,-0.103,240.59
33.467,0.128,240.91
33.483,0.211,241.23
33.500,0.114,241.55
33.517,-0.083,241.87
33.533,-0.272,242.18
33.550,-0.284,242.50
33.567,-0.171,242.82
33.583,-0.072,243.14
33.600,0.013,243.46
33.617,0.119,243.78
33.633,0.114,244.10
33.650,-0.010,244.41
33.667,-0.138,244.73
33.683,-0.193,245.05
33.700,-0.185,245.37
33.717,-0.116,245.69
33.733,-0.118,246.01
33.750,-0.169,246.33
33.767,-0.185,246.65
33.783,-0.160,246.97
33.800,-0.215,247.29
33.817,-0.257,247.61
33.833,-0.246,247.93
33.850,-0.200,248.25
33.867,-0.091,248.57
33.883,-0.046,248.89
33.900,-0.130,249.21
33.917,-0.293,249.53
33.933,-0.445,249.85
33.950,-0.451,250.17
33.967,-0.356,250.49
33.983,-0.200,250.81
34.000,-0.037,251.13
34.017,0.013,251.45
34.033,0.113,251.77
34.050,0.555,252.09
34.067,1.243,252.41
34.083,1.778,252.73
34.100,1.837,253.05
34.117,1.417,253.37
34.133,0.709,253.69
34.150,0.199,254.02
34.167,0.103,254.34
34.183,0.068,254.66
34.200,-0.056,254.98
34.217,-0.120,255.30
34.233,-0.163,255.62
34.250,-0.164,255.94
34.267,-0.169,256.27
34.283,-0.150,256.59
34.300,-0.197,256.91
34.317,-0.261,257.23
34.333,-0.257,257.55
34.350,-0.270,257.88
34.367,-0.272,258.20
34.383,-0.298,258.52
34.400,-0.310,258.84
34.417,-0.298,259.16
34.433,-0.329,259.49
34.450,-0.304,259.81
34.467,-0.227,260.13
34.483,-0.061,260.45
34.500,0.097,260.78
34.517,0.045,261.10
34.533,0.006,261.42
34.550,-0.096,261.75
34.567,-0.070,262.07
34.583,-0.046,262.39
34.600,-0.076,262.71
34.617,-0.172,263.04
34.633,-0.274,263.36
34.650,-0.343,263.68
34.667,-0.388,264.01
34.683,-0.384,264.33
34.700,-0.328,264.65
34.717,-0.285,264.98
34.733,-0.305,265.30
34.750,-0.460,265.63
34.767,-0.376,265.95
34.783,-0.233,266.27
34.800,-0.218,266.60
34.817,-0.167,266.92
34.833,-0.008,267.24
34.850,0.128,267.57
34.867,0.136,267.89
34.883,-0.032,268.22
34.900,-0.355,268.54
34.917,-0.473,268.87
34.933,-0.324,269.19
34.950,-0.201,269.51
34.967,-0.218,269.84
34.983,-0.278,270.16
35.000,-0.375,270.49
35.017,-0.550,270.81
35.033,0.448,271.14
35.050,-1.186,271.46
35.067,-0.836,271.79
35.083,1.596,272.11
35.100,4.111,272.44
35.117,4.975,272.76
35.133,3.628,273.09
35.150,0.997,273.41
35.167,-1.029,273.74
35.183,-0.900,274.06
35.200,0.672,274.39
35.217,-0.353,274.72
35.233,-0.260,275.04
35.250,-0.305,275.37
35.267,-0.338,275.69
35.283,-0.253,276.02
35.300,-0.165,276.34
35.317,-0.110,276.67
35.333,-0.044,277.00
35.350,0.005,277.32
35.367,0.071,277.65
35.383,0.077,277.97
35.400,0.129,278.30
35.417,0.037,278.63
35.433,-0.103,278.95
35.450,-0.174,279.28
35.467,-0.230,279.60
35.483,-0.228,279.93
35.500,-0.100,280.26
35.517,-0.053,280.58
35.533,-0.095,280.91
35.550,-0.179,281.24
35.567,-0.220,281.56
35.583,-0.161,281.89
35.600,0.009,282.22
35.617,0.199,282.54
35.633,0.286,282.87
35.650,0.262,283.20
35.667,0.263,283.52
35.683,0.233,283.85
35.700,0.313,284.18
35.717,0.475,284.51
35.733,0.585,284.83
35.750,0.535,285.16
35.767,0.302,285.49
35.783,0.022,285.82
35.800,-0.120,286.14
35.817,0.081,286.47
35.833,0.512,286.80
35.850,0.838,287.13
35.867,0.913,287.45
35.883,0.705,287.78
35.900,0.372,288.11
35.917,0.054,288.44
35.933,-0.119,288.76
35.950,-0.186,289.09
35.967,-0.179,289.42
35.983,-0.114,289.75
36.000,-0.069,290.08
36.017,-0.139,290.40
36.033,-0.278,290.73
36.050,-0.320,291.06
36.067,-0.198,291.39
36.083,-0.069,291.72
36.100,-0.033,292.05
36.117,-0.094,292.37
36.133,-0.153,292.70
36.150,0.029,293.03
36.167,0.428,293.36
36.183,0.750,293.69
36.200,0.805,294.02
36.217,0.653,294.35
36.233,0.463,294.68
36.250,0.319,295.00
36.267,0.275,295.33
36.283,0.285,295.66
36.300,0.266,295.99
36.317,0.291,296.32
36.333,0.250,296.65
36.350,0.071,296.98
36.367,-0.113,297.31
36.383,-0.205,297.64
36.400,-0.203,297.97
36.417,-0.210,298.29
36.433,-0.236,298.62
36.450,-0.237,298.95
36.467,-0.189,299.28
36.483,-0.159,299.61
36.500,-0.211,299.94
36.517,-0.271,300.27
36.533,-0.278,300.60
36.550,-0.164,300.93
36.567,-0.053,301.26
36.583,-0.090,301.59
36.600,-0.157,301.92
36.617,-0.141,302.25
36.633,-0.126,302.58
36.650,-0.146,302.91
36.667,-0.060,303.24
36.683,0.038,303.57
36.700,0.124,303.90
36.717,0.298,304.23
36.733,0.310,304.56
36.750,0.146,304.89
36.767,0.007,305.22
36.783,-0.067,305.55
36.800,-0.158,305.88
36.817,-0.189,306.21
36.833,-0.162,306.54
36.850,-0.193,306.87
36.867,-0.246,307.20
36.883,-0.261,307.53
36.900,-0.188,307.86
36.917,0.035,308.19
36.933,0.241,308.52
36.950,0.218,308.85
36.967,-0.020,309.19
36.983,-0.252,309.52
37.000,-0.305,309.85
37.017,-0.116,310.18
37.033,0.083,310.51
37.050,0.134,310.84
37.067,0.112,311.17
37.083,-0.012,311.50
37.100,-0.170,311.83
37.117,-0.288,312.16
37.133,-0.349,312.49
37.150,-0.349,312.83
37.167,-0.288,313.16
37.183,-0.243,313.49
37.200,-0.262,313.82
37.217,-0.317,314.15
37.233,-0.367,314.48
37.250,-0.407,314.81
37.267,-0.394,315.14
37.283,-0.354,315.48
37.300,-0.325,315.81
37.317,-0.308,316.14
37.333,-0.319,316.47
37.350,-0.400,316.80
37.367,-0.438,317.13
37.383,-0.443,317.47
37.400,-0.334,317.80
37.417,-0.232,318.13
37.433,-0.195,318.46
37.450,-0.230,318.79
37.467,-0.223,319.12
37.483,-0.168,319.46
37.500,-0.150,319.79
37.517,-0.157,320.12
37.533,-0.210,320.45
37.550,-0.307,320.78
37.567,-0.250,321.12
37.583,-0.179,321.45
37.600,-0.063,321.78
37.617,-0.035,322.11
37.633,0.027,322.44
37.650,-0.017,322.78
37.667,-0.070,323.11
37.683,-0.068,323.44
37.700,-0.082,323.77
37.717,-0.123,324.11
37.733,-0.009,324.44
37.750,0.033,324.77
37.767,0.066,325.10
37.783,0.003,325.43
37.800,-0.007,325.77
37.817,-0.055,326.10
37.833,-0.015,326.43
37.850,0.026,326.76
37.867,-0.017,327.10
37.883,-0.029,327.43
37.900,0.022,327.76
37.917,-0.025,328.10
37.933,-0.162,328.43
37.950,-0.305,328.76
37.967,-0.350,329.09
37.983,-0.324,329.43
38.000,-0.204,329.76
38.017,-0.194,330.09
38.033,-0.337,330.42
38.050,-0.387,330.76
38.067,-0.332,331.09
38.083,-0.240,331.42
38.100,-0.149,331.76
38.117,-0.152,332.09
38.133,-0.166,332.42
38.150,-0.170,332.76
38.167,-0.078,333.09
38.183,0.006,333.42
38.200,0.011,333.76
38.217,0.056,334.09
38.233,0.060,334.42
38.250,0.039,334.75
38.267,0.097,335.09
38.283,0.061,335.42
38.300,0.043,335.75
38.317,-0.074,336.09
38.333,-0.063,336.42
38.350,-0.086,336.75
38.367,-0.155,337.09
38.383,-0.159,337.42
38.400,-0.181,337.76
38.417,-0.089,338.09
38.433,0.019,338.42
38.450,0.017,338.76
38.467,-0.109,339.09
38.483,-0.250,339.42
38.500,-0.366,339.76
38.517,-0.442,340.09
38.533,-0.380,340.42
38.550,-0.295,340.76
38.567,-0.075,341.09
38.583,0.284,341.42
38.600,0.492,341.76
38.617,0.552,342.09
38.633,0.427,342.43
38.650,0.149,342.76
38.667,-0.153,343.09
38.683,-0.217,343.43
38.700,-0.126,343.76
38.717,-0.099,344.10
38.733,-0.039,344.43
38.750,-0.022,344.76
38.767,-0.073,345.10
38.783,-0.015,345.43
38.800,0.075,345.77
38.817,0.081,346.10
38.833,0.053,346.43
38.850,-0.050,346.77
38.867,-0.143,347.10
38.883,-0.195,347.44
38.900,-0.148,347.77
38.917,-0.130,348.10
38.933,-0.131,348.44
38.950,-0.099,348.77
38.967,-0.028,349.11
38.983,0.103,349.44
39.000,0.236,349.78
39.017,0.289,350.11
39.033,0.376,350.44
39.050,0.556,350.78
39.067,0.799,351.11
39.083,1.073,351.45
39.100,1.307,351.78
39.117,1.390,352.12
39.133,1.223,352.45
39.150,0.940,352.78
39.167,0.668,353.12
39.183,0.481,353.45
39.200,0.414,353.79
39.217,0.360,354.12
39.233,0.325,354.46
39.250,0.300,354.79
39.267,0.258,355.13
39.283,0.189,355.46
39.300,0.111,355.80
39.317,0.116,356.13
39.333,0.170,356.46
39.350,0.273,356.80
39.367,0.336,357.13
39.383,0.250,357.47
39.400,0.147,357.80
39.417,0.084,358.14
39.433,0.084,358.47
39.450,0.095,358.81
39.467,0.054,359.14
39.483,0.106,359.48
39.500,0.367,359.81
39.517,0.661,360.15
39.533,0.775,360.48
39.550,0.639,360.82
39.567,0.365,361.15
39.583,0.179,361.49
39.600,0.220,361.82
39.617,0.269,362.16
39.633,0.109,362.49
39.650,-0.031,362.83
39.667,-0.046,363.16
39.683,0.006,363.50
39.700,0.047,363.83
39.717,0.032,364.17
39.733,-0.078,364.50
39.750,-0.196,364.84
39.767,-0.230,365.17
39.783,-0.291,365.51
39.800,-0.211,365.84
39.817,0.194,366.18
39.833,0.708,366.51
39.850,0.939,366.85
39.867,0.679,367.18
39.883,0.141,367.52
39.900,-0.381,367.85
39.917,-0.494,368.19
39.933,-0.276,368.52
39.950,-0.138,368.86
39.967,-0.148,369.19
39.983,-0.202,369.53
40.000,-0.231,369.86
40.017,-0.189,370.20
40.033,-0.087,370.53
40.050,-0.031,370.87
40.067,-0.104,371.20
40.083,-0.185,371.54
40.100,-0.202,371.87
40.117,-0.188,372.21
40.133,-0.204,372.54
40.150,-0.257,372.88
40.167,-0.257,373.21
40.183,-0.186,373.55
40.200,-0.124,373.88
40.217,-0.144,374.22
40.233,-0.259,374.55
40.250,-0.374,374.89
40.267,-0.348,375.23
40.283,-0.270,375.56
40.300,-0.270,375.90
40.317,-0.347,376.23
40.333,-0.383,376.57
40.350,-0.320,376.90
40.367,-0.129,377.24
40.383,0.013,377.57
40.400,0.047,377.91
40.417,0.012,378.24
40.433,0.016,378.58
40.450,0.022,378.91
40.467,0.048,379.25
40.483,-0.004,379.59
40.500,-0.069,379.92
40.517,-0.094,380.26
40.533,-0.056,380.59
40.550,-0.031,380.93
40.567,0.016,381.26
40.583,-0.029,381.60
40.600,-0.038,381.93
40.617,0.185,382.27
40.633,0.731,382.60
40.650,1.175,382.94
40.667,1.330,383.28
40.683,1.005,383.61
40.700,0.459,383.95
40.717,0.107,384.28
40.733,0.023,384.62
40.750,-0.045,384.95
40.767,-0.144,385.29
40.783,-0.188,385.62
40.800,-0.149,385.96
40.817,-0.072,386.29
40.833,0.063,386.63
40.850,0.097,386.97
40.867,0.059,387.30
40.883,0.088,387.64
40.900,0.043,387.97
40.917,-0.048,388.31
40.933,-0.191,388.64
40.950,-0.263,388.98
40.967,-0.305,389.31
40.983,-0.378,389.65
41.000,-0.360,389.99
41.017,-0.339,390.32
41.033,-0.362,390.66
41.050,-0.256,390.99
41.067,-0.185,391.33
41.083,-0.054,391.66
41.100,-0.033,392.00
41.117,-0.030,392.34
41.133,-0.162,392.67
41.150,-0.268,393.01
41.167,-0.219,393.34
41.183,-0.093,393.68
41.200,-0.040,394.01
41.217,-0.097,394.35
41.233,-0.270,394.68
41.250,-0.333,395.02
41.267,-0.318,395.36
41.283,-0.155,395.69
41.300,-0.071,396.03
41.317,0.022,396.36
41.333,0.031,396.70
41.350,0.037,397.03
41.367,-0.035,397.37
41.383,-0.087,397.70
41.400,-0.070,398.04
41.417,-0.137,398.38
41.433,-0.156,398.71
41.450,-0.056,399.05
41.467,-0.001,399.38
41.483,0.044,399.72
41.500,0.014,400.05
