VERSION=1.3
ExportFileName=PM VB 8_2025-05-14_13-24-16_labchip_PURE_Data_D10
SampleLabel=D10
SampleName=PM VB 8
SampleComment=
SampleAreaConcRatio=0.014743
SampleLowerMarkerTime=12.12
SampleUpperMarkerTime=-1.00
SamplePeakTimes=12.12,15.50,16.15,16.62,17.17,17.48,17.73,18.13,18.27,18.38,18.60,18.88,19.18,19.55,19.88,20.47,20.80,21.22,22.07,22.68,22.98,23.65,25.22,25.78,26.85,33.28
SamplePeakSizes=1.380,9.130,11.855,14.099,17.063,18.929,20.486,23.131,24.055,24.881,26.458,28.605,30.982,34.033,36.944,42.351,45.617,49.877,59.165,66.388,70.045,78.494,99.999,108.305,124.633,237.621
SamplePeakQuantities=,,3.4776,2.6897,18.5573,3.0610,7.7184,107.8440,119.5749,131.6598,25.4173,19.1300,12.0558,47.1914,367.0761,458.3559,747.7522,215.3087,384.4978,336.6193,31.2427,32.6407,118.8187,75.3200,12.0498,3.6473
PlateFileName=2025-05-14_13-24-16_labchip_PURE
PlateAssayName=HT Protein Express 200
PlateBarCode=N/A
WellAquisitionTime=5/14/2025 2:34:24 PM 
PlateDataFrequency=60
PlateDataStartTime=11.00
PlateDataEndTime=42.00
PlateConcUnits=ng/ul
PlateSizeUnits=kDa
PlateLadderSizes=1.40,15.90,20.40,28.90,48.40,68.40,119.20
ChipID=H296P-0563N-03
Operator=ACJS
DATA
Time,Value,Size
0.000,25.329,0.00
0.017,25.114,0.00
0.033,24.904,0.00
0.050,24.843,0.00
0.067,24.915,0.00
0.083,25.044,0.00
0.100,25.082,0.00
0.117,25.135,0.00
0.133,25.054,0.00
0.150,25.031,0.00
0.167,25.087,0.00
0.183,25.114,0.00
0.200,24.972,0.00
0.217,24.448,0.00
0.233,23.723,0.00
0.250,22.987,0.00
0.267,22.426,0.00
0.283,21.999,0.00
0.300,21.351,0.00
0.317,20.483,0.00
0.333,19.461,0.00
0.350,18.471,0.00
0.367,17.605,0.00
0.383,16.657,0.00
0.400,15.659,0.00
0.417,14.552,0.00
0.433,13.527,0.00
0.450,12.551,0.00
0.467,11.656,0.00
0.483,10.800,0.00
0.500,9.915,0.00
0.517,9.081,0.00
0.533,8.345,0.00
0.550,7.659,0.00
0.567,7.003,0.00
0.583,6.396,0.00
0.600,5.787,0.00
0.617,5.127,0.00
0.633,4.498,0.00
0.650,4.014,0.00
0.667,3.581,0.00
0.683,3.167,0.00
0.700,2.660,0.00
0.717,2.104,0.00
0.733,1.559,0.00
0.750,1.082,0.00
0.767,0.752,0.00
0.783,0.418,0.00
0.800,0.111,0.00
0.817,-0.156,0.00
0.833,-0.443,0.00
0.850,-0.690,0.00
0.867,-0.940,0.00
0.883,-1.202,0.00
0.900,-1.589,0.00
0.917,-1.946,0.00
0.933,-2.200,0.00
0.950,-2.452,0.00
0.967,-2.637,0.00
0.983,-2.830,0.00
1.000,-2.983,0.00
1.017,-3.194,0.00
1.033,-3.393,0.00
1.050,-3.596,0.00
1.067,-3.828,0.00
1.083,-3.962,0.00
1.100,-4.066,0.00
1.117,-4.182,0.00
1.133,-4.279,0.00
1.150,-4.383,0.00
1.167,-4.500,0.00
1.183,-4.715,0.00
1.200,-4.971,0.00
1.217,-5.199,0.00
1.233,-5.353,0.00
1.250,-5.507,0.00
1.267,-5.678,0.00
1.283,-5.808,0.00
1.300,-5.912,0.00
1.317,-5.961,0.00
1.333,-5.979,0.00
1.350,-6.019,0.00
1.367,-6.141,0.00
1.383,-6.268,0.00
1.400,-6.338,0.00
1.417,-6.422,0.00
1.433,-6.513,0.00
1.450,-6.601,0.00
1.467,-6.702,0.00
1.483,-6.758,0.00
1.500,-6.771,0.00
1.517,-6.852,0.00
1.533,-7.037,0.00
1.550,-7.201,0.00
1.567,-7.271,0.00
1.583,-7.289,0.00
1.600,-7.298,0.00
1.617,-7.393,0.00
1.633,-7.589,0.00
1.650,-7.744,0.00
1.667,-7.769,0.00
1.683,-7.761,0.00
1.700,-7.827,0.00
1.717,-7.944,0.00
1.733,-8.073,0.00
1.750,-8.159,0.00
1.767,-8.180,0.00
1.783,-8.204,0.00
1.800,-8.299,0.00
1.817,-8.429,0.00
1.833,-8.528,0.00
1.850,-8.609,0.00
1.867,-8.680,0.00
1.883,-8.711,0.00
1.900,-8.748,0.00
1.917,-8.821,0.00
1.933,-8.892,0.00
1.950,-8.920,0.00
1.967,-8.942,0.00
1.983,-8.991,0.00
2.000,-9.073,0.00
2.017,-9.189,0.00
2.033,-9.289,0.00
2.050,-9.336,0.00
2.067,-9.389,0.00
2.083,-9.450,0.00
2.100,-9.449,0.00
2.117,-9.428,0.00
2.133,-9.505,0.00
2.150,-9.674,0.00
2.167,-9.840,0.00
2.183,-9.942,0.00
2.200,-9.954,0.00
2.217,-9.918,0.00
2.233,-9.916,0.00
2.250,-9.988,0.00
2.267,-10.059,0.00
2.283,-10.054,0.00
2.300,-9.991,0.00
2.317,-9.921,0.00
2.333,-9.898,0.00
2.350,-9.989,0.00
2.367,-10.122,0.00
2.383,-10.210,0.00
2.400,-10.232,0.00
2.417,-10.240,0.00
2.433,-10.277,0.00
2.450,-10.356,0.00
2.467,-10.443,0.00
2.483,-10.500,0.00
2.500,-10.528,0.00
2.517,-10.589,0.00
2.533,-10.663,0.00
2.550,-10.765,0.00
2.567,-10.835,0.00
2.583,-10.852,0.00
2.600,-10.848,0.00
2.617,-10.867,0.00
2.633,-10.975,0.00
2.650,-11.097,0.00
2.667,-11.190,0.00
2.683,-11.286,0.00
2.700,-11.362,0.00
2.717,-11.419,0.00
2.733,-11.495,0.00
2.750,-11.530,0.00
2.767,-11.546,0.00
2.783,-11.554,0.00
2.800,-11.578,0.00
2.817,-11.544,0.00
2.833,-11.495,0.00
2.850,-11.538,0.00
2.867,-11.570,0.00
2.883,-11.556,0.00
2.900,-11.548,0.00
2.917,-11.488,0.00
2.933,-11.472,0.00
2.950,-11.534,0.00
2.967,-11.589,0.00
2.983,-11.612,0.00
3.000,-11.675,0.00
3.017,-11.770,0.00
3.033,-11.854,0.00
3.050,-11.922,0.00
3.067,-11.920,0.00
3.083,-11.896,0.00
3.100,-11.890,0.00
3.117,-11.959,0.00
3.133,-12.038,0.00
3.150,-12.074,0.00
3.167,-12.145,0.00
3.183,-12.187,0.00
3.200,-12.252,0.00
3.217,-12.274,0.00
3.233,-12.256,0.00
3.250,-12.253,0.00
3.267,-12.280,0.00
3.283,-12.357,0.00
3.300,-12.527,0.00
3.317,-12.741,0.00
3.333,-13.136,0.00
3.350,-13.666,0.00
3.367,-14.197,0.00
3.383,-14.650,0.00
3.400,-15.016,0.00
3.417,-15.335,0.00
3.433,-15.577,0.00
3.450,-15.733,0.00
3.467,-15.902,0.00
3.483,-16.013,0.00
3.500,-16.163,0.00
3.517,-16.320,0.00
3.533,-16.411,0.00
3.550,-16.458,0.00
3.567,-16.509,0.00
3.583,-16.591,0.00
3.600,-16.650,0.00
3.617,-16.719,0.00
3.633,-16.746,0.00
3.650,-16.748,0.00
3.667,-16.753,0.00
3.683,-16.806,0.00
3.700,-16.822,0.00
3.717,-16.783,0.00
3.733,-16.770,0.00
3.750,-16.776,0.00
3.767,-16.787,0.00
3.783,-16.817,0.00
3.800,-16.819,0.00
3.817,-16.807,0.00
3.833,-16.776,0.00
3.850,-16.759,0.00
3.867,-16.747,0.00
3.883,-16.701,0.00
3.900,-16.715,0.00
3.917,-16.749,0.00
3.933,-16.776,0.00
3.950,-16.764,0.00
3.967,-16.714,0.00
3.983,-16.631,0.00
4.000,-16.616,0.00
4.017,-16.636,0.00
4.033,-16.637,0.00
4.050,-16.569,0.00
4.067,-16.496,0.00
4.083,-16.413,0.00
4.100,-16.389,0.00
4.117,-16.450,0.00
4.133,-16.526,0.00
4.150,-16.536,0.00
4.167,-16.523,0.00
4.183,-16.439,0.00
4.200,-16.374,0.00
4.217,-16.377,0.00
4.233,-16.444,0.00
4.250,-16.499,0.00
4.267,-16.493,0.00
4.283,-16.459,0.00
4.300,-16.428,0.00
4.317,-16.417,0.00
4.333,-16.430,0.00
4.350,-16.446,0.00
4.367,-16.444,0.00
4.383,-16.399,0.00
4.400,-16.334,0.00
4.417,-16.301,0.00
4.433,-16.310,0.00
4.450,-16.343,0.00
4.467,-16.312,0.00
4.483,-16.233,0.00
4.500,-16.136,0.00
4.517,-16.093,0.00
4.533,-16.110,0.00
4.550,-16.127,0.00
4.567,-16.122,0.00
4.583,-16.095,0.00
4.600,-16.035,0.00
4.617,-15.977,0.00
4.633,-15.910,0.00
4.650,-15.895,0.00
4.667,-15.909,0.00
4.683,-15.864,0.00
4.700,-15.726,0.00
4.717,-15.529,0.00
4.733,-15.340,0.00
4.750,-15.160,0.00
4.767,-14.987,0.00
4.783,-14.833,0.00
4.800,-14.643,0.00
4.817,-14.420,0.00
4.833,-14.159,0.00
4.850,-13.839,0.00
4.867,-13.517,0.00
4.883,-13.244,0.00
4.900,-12.999,0.00
4.917,-12.744,0.00
4.933,-12.514,0.00
4.950,-12.288,0.00
4.967,-12.003,0.00
4.983,-11.734,0.00
5.000,-11.530,0.00
5.017,-11.357,0.00
5.033,-11.195,0.00
5.050,-10.981,0.00
5.067,-10.719,0.00
5.083,-10.472,0.00
5.100,-10.292,0.00
5.117,-10.174,0.00
5.133,-10.032,0.00
5.150,-9.890,0.00
5.167,-9.784,0.00
5.183,-9.687,0.00
5.200,-9.629,0.00
5.217,-9.557,0.00
5.233,-9.463,0.00
5.250,-9.334,0.00
5.267,-9.183,0.00
5.283,-9.070,0.00
5.300,-8.971,0.00
5.317,-8.894,0.00
5.333,-8.884,0.00
5.350,-8.922,0.00
5.367,-8.965,0.00
5.383,-8.889,0.00
5.400,-8.862,0.00
5.417,-9.002,0.00
5.433,-9.365,0.00
5.450,-9.802,0.00
5.467,-10.076,0.00
5.483,-10.060,0.00
5.500,-9.890,0.00
5.517,-9.734,0.00
5.533,-9.651,0.00
5.550,-9.537,0.00
5.567,-9.431,0.00
5.583,-9.277,0.00
5.600,-9.119,0.00
5.617,-8.972,0.00
5.633,-8.841,0.00
5.650,-8.714,0.00
5.667,-8.629,0.00
5.683,-8.660,0.00
5.700,-8.742,0.00
5.717,-8.833,0.00
5.733,-8.853,0.00
5.750,-8.813,0.00
5.767,-8.780,0.00
5.783,-8.728,0.00
5.800,-8.724,0.00
5.817,-8.719,0.00
5.833,-8.675,0.00
5.850,-8.708,0.00
5.867,-8.772,0.00
5.883,-8.833,0.00
5.900,-8.763,0.00
5.917,-8.625,0.00
5.933,-8.535,0.00
5.950,-8.531,0.00
5.967,-8.676,0.00
5.983,-8.849,0.00
6.000,-8.939,0.00
6.017,-8.975,0.00
6.033,-8.967,0.00
6.050,-8.934,0.00
6.067,-8.960,0.00
6.083,-8.989,0.00
6.100,-9.066,0.00
6.117,-9.086,0.00
6.133,-9.106,0.00
6.150,-9.141,0.00
6.167,-9.159,0.00
6.183,-9.208,0.00
6.200,-9.240,0.00
6.217,-9.259,0.00
6.233,-9.311,0.00
6.250,-9.367,0.00
6.267,-9.447,0.00
6.283,-9.488,0.00
6.300,-9.513,0.00
6.317,-9.497,0.00
6.333,-9.500,0.00
6.350,-9.526,0.00
6.367,-9.650,0.00
6.383,-9.820,0.00
6.400,-9.897,0.00
6.417,-9.931,0.00
6.433,-9.910,0.00
6.450,-10.017,0.00
6.467,-10.155,0.00
6.483,-10.295,0.00
6.500,-10.383,0.00
6.517,-10.360,0.00
6.533,-11.925,0.00
6.550,-17.808,0.00
6.567,27.121,0.00
6.583,-14.003,0.00
6.600,-75.099,0.00
6.617,-4.878,0.00
6.633,311.477,0.00
6.650,809.319,0.00
6.667,1464.916,0.00
6.683,2128.994,0.00
6.700,2634.622,0.00
6.717,2937.339,0.00
6.733,3100.713,0.00
6.750,3078.530,0.00
6.767,3006.580,0.00
6.783,2975.207,0.00
6.800,2981.242,0.00
6.817,2945.081,0.00
6.833,2922.282,0.00
6.850,2909.943,0.00
6.867,2904.644,0.00
6.883,2904.118,0.00
6.900,2907.808,0.00
6.917,2910.875,0.00
6.933,2913.273,0.00
6.950,2914.799,0.00
6.967,2915.904,0.00
6.983,2916.989,0.00
7.000,2918.423,0.00
7.017,2920.109,0.00
7.033,2921.168,0.00
7.050,2921.967,0.00
7.067,2923.840,0.00
7.083,2925.540,0.00
7.100,2927.357,0.00
7.117,2928.938,0.00
7.133,2929.694,0.00
7.150,2928.887,0.00
7.167,2928.733,0.00
7.183,2929.393,0.00
7.200,2929.801,0.00
7.217,2929.190,0.00
7.233,2928.305,0.00
7.250,2927.843,0.00
7.267,2927.041,0.00
7.283,2925.737,0.00
7.300,2923.128,0.00
7.317,2919.879,0.00
7.333,2916.331,0.00
7.350,2912.520,0.00
7.367,2907.638,0.00
7.383,2901.496,0.00
7.400,2894.807,0.00
7.417,2888.991,0.00
7.433,2883.688,0.00
7.450,2877.650,0.00
7.467,2870.915,0.00
7.483,2864.449,0.00
7.500,2857.385,0.00
7.517,2850.584,0.00
7.533,2844.561,0.00
7.550,2838.113,0.00
7.567,2831.772,0.00
7.583,2825.082,0.00
7.600,2818.237,0.00
7.617,2811.768,0.00
7.633,2805.554,0.00
7.650,2800.115,0.00
7.667,2795.091,0.00
7.683,2789.230,0.00
7.700,2783.060,0.00
7.717,2776.622,0.00
7.733,2770.414,0.00
7.750,2764.244,0.00
7.767,2758.361,0.00
7.783,2752.853,0.00
7.800,2747.101,0.00
7.817,2741.976,0.00
7.833,2736.948,0.00
7.850,2731.314,0.00
7.867,2726.218,0.00
7.883,2721.420,0.00
7.900,2715.647,0.00
7.917,2708.831,0.00
7.933,2701.439,0.00
7.950,2694.306,0.00
7.967,2688.490,0.00
7.983,2684.135,0.00
8.000,2679.406,0.00
8.017,2673.243,0.00
8.033,2666.021,0.00
8.050,2659.113,0.00
8.067,2653.715,0.00
8.083,2648.679,0.00
8.100,2643.676,0.00
8.117,2638.803,0.00
8.133,2634.178,0.00
8.150,2629.302,0.00
8.167,2623.691,0.00
8.183,2617.779,0.00
8.200,2611.831,0.00
8.217,2606.683,0.00
8.233,2602.835,0.00
8.250,2599.042,0.00
8.267,2594.714,0.00
8.283,2590.066,0.00
8.300,2585.581,0.00
8.317,2581.365,0.00
8.333,2578.121,0.00
8.350,2575.503,0.00
8.367,2572.331,0.00
8.383,2568.665,0.00
8.400,2565.344,0.00
8.417,2563.161,0.00
8.433,2561.897,0.00
8.450,2561.628,0.00
8.467,2561.127,0.00
8.483,2559.665,0.00
8.500,2558.992,0.00
8.517,2558.442,0.00
8.533,2558.045,0.00
8.550,2558.686,0.00
8.567,2558.760,0.00
8.583,2557.462,0.00
8.600,2556.222,0.00
8.617,2556.534,0.00
8.633,2556.412,0.00
8.650,2556.014,0.00
8.667,2555.896,0.00
8.683,2554.822,0.00
8.700,2552.711,0.00
8.717,2550.589,0.00
8.733,2548.247,0.00
8.750,2545.792,0.00
8.767,2543.758,0.00
8.783,2541.885,0.00
8.800,2539.033,0.00
8.817,2536.496,0.00
8.833,2534.852,0.00
8.850,2534.207,0.00
8.867,2534.326,0.00
8.883,2533.562,0.00
8.900,2531.486,0.00
8.917,2529.401,0.00
8.933,2526.046,0.00
8.950,2522.011,0.00
8.967,2517.846,0.00
8.983,2513.657,0.00
9.000,2509.788,0.00
9.017,2506.358,0.00
9.033,2502.146,0.00
9.050,2496.676,0.00
9.067,2490.092,0.00
9.083,2483.876,0.00
9.100,2477.213,0.00
9.117,2470.668,0.00
9.133,2463.755,0.00
9.150,2455.408,0.00
9.167,2452.240,0.00
9.183,2442.394,0.00
9.200,2425.690,0.00
9.217,2419.052,0.00
9.233,2430.987,0.00
9.250,2482.281,0.00
9.267,2564.160,0.00
9.283,2646.402,0.00
9.300,2696.841,0.00
9.317,2706.574,0.00
9.333,2696.509,0.00
9.350,2676.145,0.00
9.367,2662.722,0.00
9.383,2657.239,0.00
9.400,2647.364,0.00
9.417,2638.203,0.00
9.433,2627.080,0.00
9.450,2614.765,0.00
9.467,2603.453,0.00
9.483,2593.487,0.00
9.500,2584.545,0.00
9.517,2578.830,0.00
9.533,2570.502,0.00
9.550,2558.479,0.00
9.567,2550.456,0.00
9.583,2549.229,0.00
9.600,2568.304,0.00
9.617,2605.486,0.00
9.633,2638.849,0.00
9.650,2659.500,0.00
9.667,2653.846,0.00
9.683,2632.748,0.00
9.700,2619.344,0.00
9.717,2631.942,0.00
9.733,2689.251,0.00
9.750,2777.905,0.00
9.767,2877.852,0.00
9.783,2924.487,0.00
9.800,2956.715,0.00
9.817,3005.925,0.00
9.833,3010.145,0.00
9.850,2909.519,0.00
9.867,2607.198,0.00
9.883,2140.949,0.00
9.900,1633.747,0.00
9.917,1193.922,0.00
9.933,854.086,0.00
9.950,568.336,0.00
9.967,354.812,0.00
9.983,210.104,0.00
10.000,123.040,0.00
10.017,86.259,0.00
10.033,43.638,0.00
10.050,9.498,0.00
10.067,-10.795,0.00
10.083,-18.349,0.00
10.100,-17.691,0.00
10.117,-15.402,0.00
10.133,-13.236,0.00
10.150,-10.703,0.00
10.167,-8.437,0.00
10.183,-6.741,0.00
10.200,-5.524,0.00
10.217,-4.677,0.00
10.233,-4.014,0.00
10.250,-3.512,0.00
10.267,-3.043,0.00
10.283,-2.644,0.00
10.300,-2.282,0.00
10.317,-1.702,0.00
10.333,-1.054,0.00
10.350,-0.605,0.00
10.367,-0.732,0.00
10.383,-1.403,0.00
10.400,-2.223,0.00
10.417,-2.744,0.00
10.433,-2.784,0.00
10.450,-2.649,0.00
10.467,-2.631,0.00
10.483,-2.658,0.00
10.500,-2.719,0.00
10.517,-2.693,0.00
10.533,-2.549,0.00
10.550,-2.250,0.00
10.567,-1.920,0.00
10.583,-1.771,0.00
10.600,-1.820,0.00
10.617,-2.010,0.00
10.633,-2.131,0.00
10.650,-2.001,0.00
10.667,-1.768,0.00
10.683,-1.662,0.00
10.700,-1.676,0.00
10.717,-1.658,0.00
10.733,-1.543,0.00
10.750,-1.317,0.00
10.767,-1.173,0.00
10.783,-1.235,0.00
10.800,-1.202,0.00
10.817,-0.914,0.00
10.833,-0.507,0.00
10.850,-0.160,0.00
10.867,0.096,0.00
10.883,0.076,0.00
10.900,0.001,0.00
10.917,0.585,0.00
10.933,1.456,0.00
10.950,1.954,0.00
10.967,1.824,0.00
10.983,1.059,0.00
11.000,0.155,0.00
11.017,-0.274,0.00
11.033,-0.064,0.00
11.050,0.177,0.00
11.067,0.091,0.00
11.083,0.311,0.00
11.100,0.693,0.00
11.117,1.056,0.00
11.133,1.295,0.00
11.150,1.421,0.00
11.167,1.717,0.00
11.183,2.395,0.00
11.200,3.191,0.00
11.217,3.576,0.00
11.233,3.198,0.00
11.250,2.545,0.00
11.267,1.909,0.00
11.283,1.493,0.00
11.300,1.299,0.00
11.317,1.232,0.00
11.333,1.209,0.00
11.350,1.250,0.00
11.367,1.338,0.00
11.383,1.461,0.00
11.400,1.579,0.00
11.417,2.184,0.00
11.433,3.039,0.00
11.450,3.253,0.00
11.467,2.412,0.00
11.483,0.796,0.00
11.500,-0.847,0.00
11.517,-1.780,0.00
11.533,-1.879,0.00
11.550,-1.542,0.00
11.567,-1.242,0.00
11.583,-0.820,0.00
11.600,-0.426,0.00
11.617,-0.246,0.00
11.633,-0.405,0.00
11.650,-0.753,0.00
11.667,-0.983,0.00
11.683,-1.039,0.00
11.700,-1.061,0.00
11.717,-1.009,0.00
11.733,-1.020,0.00
11.750,-1.204,0.00
11.767,-1.298,0.00
11.783,-1.214,0.00
11.800,-1.160,0.00
11.817,-1.043,0.00
11.833,-0.952,0.00
11.850,-1.035,0.00
11.867,-1.135,0.00
11.883,-1.191,0.00
11.900,-1.248,0.00
11.917,-1.281,0.00
11.933,-1.207,0.00
11.950,-1.216,0.00
11.967,-1.285,0.00
11.983,-1.455,0.00
12.000,-1.208,0.00
12.017,1.201,0.00
12.033,5.350,0.00
12.050,3.008,0.00
12.067,-0.780,0.00
12.083,76.215,0.00
12.100,352.355,0.00
12.117,788.130,0.00
12.133,1139.511,0.00
12.150,1168.435,0.00
12.167,850.107,0.00
12.183,397.033,1.41
12.200,72.635,1.43
12.217,-25.693,1.45
12.233,-5.349,1.47
12.250,8.583,1.48
12.267,1.915,1.50
12.283,-1.784,1.52
12.300,-1.828,1.54
12.317,-1.475,1.56
12.333,-1.354,1.58
12.350,-1.238,1.59
12.367,-1.092,1.61
12.383,-1.099,1.63
12.400,-1.202,1.65
12.417,-1.318,1.67
12.433,-1.408,1.69
12.450,-1.421,1.71
12.467,-1.397,1.73
12.483,-1.434,1.75
12.500,-1.546,1.77
12.517,-1.584,1.79
12.533,-1.516,1.81
12.550,-1.458,1.83
12.567,-1.485,1.85
12.583,-1.371,1.88
12.600,-1.345,1.90
12.617,-1.335,1.92
12.633,-1.352,1.94
12.650,-1.381,1.96
12.667,-1.491,1.98
12.683,-1.551,2.01
12.700,-1.524,2.03
12.717,-1.502,2.05
12.733,-1.542,2.07
12.750,-1.502,2.10
12.767,-1.512,2.12
12.783,-1.465,2.14
12.800,-1.339,2.17
12.817,-1.231,2.19
12.833,-1.249,2.21
12.850,-1.294,2.24
12.867,-1.327,2.26
12.883,-1.407,2.29
12.900,-1.520,2.31
12.917,-1.370,2.34
12.933,-0.898,2.36
12.950,-0.304,2.39
12.967,-0.065,2.41
12.983,-0.287,2.44
13.000,-0.783,2.46
13.017,-1.178,2.49
13.033,-1.215,2.51
13.050,-1.177,2.54
13.067,-1.209,2.57
13.083,-1.202,2.59
13.100,-1.163,2.62
13.117,-1.133,2.65
13.133,-1.178,2.68
13.150,-1.232,2.70
13.167,-1.275,2.73
13.183,-1.274,2.76
13.200,-1.222,2.79
13.217,-1.217,2.82
13.233,-1.121,2.84
13.250,-1.009,2.87
13.267,-1.047,2.90
13.283,-1.117,2.93
13.300,-0.948,2.96
13.317,-0.518,2.99
13.333,-0.044,3.02
13.350,0.175,3.05
13.367,-0.091,3.08
13.383,-0.619,3.11
13.400,-0.954,3.14
13.417,-1.007,3.17
13.433,-0.931,3.20
13.450,-0.802,3.23
13.467,-0.652,3.27
13.483,-0.477,3.30
13.500,-0.270,3.33
13.517,-0.024,3.36
13.533,0.121,3.39
13.550,0.542,3.43
13.567,1.080,3.46
13.583,1.480,3.49
13.600,2.221,3.53
13.617,3.123,3.56
13.633,3.724,3.59
13.650,3.837,3.63
13.667,3.359,3.66
13.683,2.512,3.69
13.700,1.785,3.73
13.717,1.576,3.76
13.733,1.430,3.80
13.750,0.930,3.83
13.767,0.523,3.87
13.783,0.038,3.91
13.800,-0.466,3.94
13.817,-0.754,3.98
13.833,-0.897,4.01
13.850,-0.902,4.05
13.867,-0.823,4.09
13.883,-0.805,4.12
13.900,-0.771,4.16
13.917,-0.670,4.20
13.933,-0.491,4.24
13.950,-0.418,4.28
13.967,-0.504,4.31
13.983,-0.635,4.35
14.000,-0.775,4.39
14.017,-0.837,4.43
14.033,-0.909,4.47
14.050,-1.002,4.51
14.067,-1.016,4.55
14.083,-1.000,4.59
14.100,-0.963,4.63
14.117,-0.906,4.67
14.133,-0.856,4.71
14.150,-0.806,4.75
14.167,-0.815,4.79
14.183,-0.872,4.83
14.200,-0.910,4.87
14.217,-0.808,4.92
14.233,-0.679,4.96
14.250,-0.673,5.00
14.267,-0.784,5.04
14.283,-0.909,5.09
14.300,-0.987,5.13
14.317,-0.959,5.17
14.333,-0.869,5.22
14.350,-0.937,5.26
14.367,-1.009,5.30
14.383,-0.794,5.35
14.400,-0.461,5.39
14.417,-0.155,5.44
14.433,-0.089,5.48
14.450,-0.403,5.53
14.467,-0.856,5.58
14.483,-1.059,5.62
14.500,-0.965,5.67
14.517,-0.748,5.71
14.533,-0.511,5.76
14.550,-0.268,5.81
14.567,-0.155,5.85
14.583,-0.063,5.90
14.600,0.138,5.95
14.617,0.215,6.00
14.633,0.110,6.05
14.650,0.027,6.09
14.667,0.095,6.14
14.683,0.292,6.19
14.700,0.433,6.24
14.717,0.420,6.29
14.733,0.184,6.34
14.750,-0.181,6.39
14.767,-0.280,6.44
14.783,-0.332,6.49
14.800,-0.481,6.54
14.817,-0.492,6.59
14.833,-0.249,6.65
14.850,0.063,6.70
14.867,0.492,6.75
14.883,1.088,6.80
14.900,1.718,6.85
14.917,2.227,6.91
14.933,2.669,6.96
14.950,2.910,7.01
14.967,2.859,7.07
14.983,2.820,7.12
15.000,2.850,7.17
15.017,2.776,7.23
15.033,2.622,7.28
15.050,2.496,7.34
15.067,2.364,7.39
15.083,2.400,7.45
15.100,2.737,7.51
15.117,3.129,7.56
15.133,3.566,7.62
15.150,4.319,7.67
15.167,5.406,7.73
15.183,6.453,7.79
15.200,6.882,7.85
15.217,6.312,7.90
15.233,4.891,7.96
15.250,3.450,8.02
15.267,2.589,8.08
15.283,2.170,8.14
15.300,2.268,8.20
15.317,2.665,8.26
15.333,3.069,8.32
15.350,3.370,8.38
15.367,3.539,8.44
15.383,3.736,8.50
15.400,4.119,8.56
15.417,4.826,8.62
15.433,6.270,8.68
15.450,8.304,8.74
15.467,10.407,8.80
15.483,15.165,8.87
15.500,25.596,8.93
15.517,40.676,8.99
15.533,54.437,9.06
15.550,59.734,9.12
15.567,53.509,9.18
15.583,39.143,9.25
15.600,23.970,9.31
15.617,12.859,9.38
15.633,5.610,9.44
15.650,1.224,9.51
15.667,-1.210,9.57
15.683,-2.499,9.64
15.700,-3.064,9.70
15.717,-2.981,9.77
15.733,-2.526,9.84
15.750,-2.167,9.90
15.767,-2.301,9.97
15.783,-2.861,10.04
15.800,-3.460,10.11
15.817,-3.737,10.17
15.833,-3.624,10.24
15.850,-3.681,10.31
15.867,-4.005,10.38
15.883,-4.474,10.45
15.900,-4.846,10.52
15.917,-4.427,10.59
15.933,-3.232,10.66
15.950,-1.895,10.73
15.967,-0.940,10.80
15.983,-0.542,10.87
16.000,-0.373,10.94
16.017,-0.188,11.01
16.033,0.226,11.09
16.050,0.535,11.16
16.067,0.809,11.23
16.083,1.650,11.30
16.100,3.118,11.38
16.117,5.075,11.45
16.133,7.570,11.53
16.150,10.686,11.60
16.167,14.626,11.67
16.183,18.771,11.75
16.200,21.504,11.82
16.217,21.029,11.90
16.233,17.060,11.97
16.250,11.192,12.05
16.267,5.592,12.13
16.283,1.779,12.20
16.300,-0.240,12.28
16.317,-1.319,12.36
16.333,-1.913,12.44
16.350,-1.903,12.51
16.367,-1.196,12.59
16.383,-0.014,12.67
16.400,1.395,12.75
16.417,2.828,12.83
16.433,4.060,12.91
16.450,4.884,12.99
16.467,5.056,13.07
16.483,4.496,13.15
16.500,3.437,13.23
16.517,2.290,13.31
16.533,1.447,13.39
16.550,1.142,13.47
16.567,1.610,13.55
16.583,2.984,13.64
16.600,5.127,13.72
16.617,7.665,13.80
16.633,10.182,13.88
16.650,12.350,13.97
16.667,13.701,14.05
16.683,13.622,14.13
16.700,11.773,14.22
16.717,8.588,14.30
16.733,5.121,14.39
16.750,2.557,14.47
16.767,1.411,14.56
16.783,1.525,14.65
16.800,2.473,14.73
16.817,3.770,14.82
16.833,4.835,14.91
16.850,5.186,14.99
16.867,4.741,15.08
16.883,3.976,15.17
16.900,3.493,15.26
16.917,3.578,15.34
16.933,3.983,15.43
16.950,4.393,15.52
16.967,4.660,15.61
16.983,4.717,15.70
17.000,4.672,15.79
17.017,4.642,15.88
17.033,4.767,15.97
17.050,5.052,16.06
17.067,5.480,16.15
17.083,5.899,16.25
17.100,6.232,16.34
17.117,7.056,16.43
17.133,9.508,16.52
17.150,16.266,16.62
17.167,30.121,16.71
17.183,51.144,16.80
17.200,74.439,16.90
17.217,91.291,16.99
17.233,94.031,17.09
17.250,81.379,17.18
17.267,59.819,17.28
17.283,38.757,17.37
17.300,24.006,17.47
17.317,16.320,17.56
17.333,12.850,17.66
17.350,10.779,17.76
17.367,9.008,17.85
17.383,8.066,17.95
17.400,8.053,18.05
17.417,8.706,18.15
17.433,9.471,18.24
17.450,9.700,18.34
17.467,9.458,18.44
17.483,9.687,18.54
17.500,11.297,18.64
17.517,14.104,18.74
17.533,16.379,18.84
17.550,16.435,18.94
17.567,13.660,19.04
17.583,9.630,19.14
17.600,6.473,19.25
17.617,5.253,19.35
17.633,5.928,19.45
17.650,7.563,19.55
17.667,9.184,19.66
17.683,10.684,19.76
17.700,12.165,19.86
17.717,13.833,19.97
17.733,15.926,20.07
17.750,18.428,20.17
17.767,20.973,20.28
17.783,22.869,20.38
17.800,23.398,20.49
17.817,21.796,20.60
17.833,18.300,20.70
17.850,13.912,20.81
17.867,10.242,20.92
17.883,8.356,21.02
17.900,8.315,21.13
17.917,10.278,21.24
17.933,13.901,21.35
17.950,18.435,21.45
17.967,22.514,21.56
17.983,24.453,21.67
18.000,24.587,21.78
18.017,25.026,21.89
18.033,29.359,22.00
18.050,38.361,22.11
18.067,48.625,22.22
18.083,55.396,22.33
18.100,56.067,22.45
18.117,57.675,22.56
18.133,83.162,22.67
18.150,163.844,22.78
18.167,297.759,22.89
18.183,433.256,23.01
18.200,504.543,23.12
18.217,478.986,23.23
18.233,383.098,23.35
18.250,283.831,23.46
18.267,243.382,23.58
18.283,280.842,23.69
18.300,373.741,23.81
18.317,480.155,23.92
18.333,548.712,24.04
18.350,548.595,24.15
18.367,488.238,24.27
18.383,419.987,24.39
18.400,406.090,24.51
18.417,466.654,24.62
18.433,562.638,24.74
18.450,623.420,24.86
18.467,598.858,24.98
18.483,493.331,25.10
18.500,352.122,25.22
18.517,226.833,25.34
18.533,139.619,25.46
18.550,89.211,25.58
18.567,64.620,25.70
18.583,56.135,25.82
18.600,58.299,25.94
18.617,67.370,26.06
18.633,79.123,26.18
18.650,89.299,26.30
18.667,92.079,26.43
18.683,84.933,26.55
18.700,70.112,26.67
18.717,53.226,26.80
18.733,39.662,26.92
18.750,32.037,27.04
18.767,29.360,27.17
18.783,29.411,27.29
18.800,29.977,27.42
18.817,29.913,27.54
18.833,29.103,27.67
18.850,28.363,27.80
18.867,28.466,27.92
18.883,29.853,28.05
18.900,32.275,28.18
18.917,35.002,28.30
18.933,37.389,28.43
18.950,39.009,28.56
18.967,39.193,28.69
18.983,37.605,28.82
19.000,34.515,28.95
19.017,30.823,29.07
19.033,27.621,29.20
19.050,25.716,29.33
19.067,24.705,29.46
19.083,23.821,29.60
19.100,22.560,29.73
19.117,21.032,29.86
19.133,19.726,29.99
19.150,19.083,30.12
19.167,19.542,30.25
19.183,21.288,30.39
19.200,24.186,30.52
19.217,27.748,30.65
19.233,30.885,30.79
19.250,32.570,30.92
19.267,32.457,31.05
19.283,30.918,31.19
19.300,29.019,31.32
19.317,27.682,31.46
19.333,27.102,31.59
19.350,27.135,31.73
19.367,27.498,31.87
19.383,28.273,32.00
19.400,29.847,32.14
19.417,32.340,32.28
19.433,35.686,32.41
19.450,39.364,32.55
19.467,42.743,32.69
19.483,45.696,32.83
19.500,48.352,32.97
19.517,50.994,33.11
19.533,53.837,33.25
19.550,56.940,33.39
19.567,60.434,33.53
19.583,64.353,33.67
19.600,68.441,33.81
19.617,71.922,33.95
19.633,73.338,34.09
19.650,71.367,34.23
19.667,65.864,34.37
19.683,58.096,34.52
19.700,50.442,34.66
19.717,45.138,34.80
19.733,43.898,34.95
19.750,47.361,35.09
19.767,55.116,35.23
19.783,66.324,35.38
19.800,79.716,35.52
19.817,93.679,35.67
19.833,108.301,35.81
19.850,128.384,35.96
19.867,165.484,36.10
19.883,234.848,36.25
19.900,342.597,36.40
19.917,472.944,36.54
19.933,593.238,36.69
19.950,671.964,36.84
19.967,699.508,36.99
19.983,688.956,37.14
20.000,660.663,37.28
20.017,624.581,37.43
20.033,577.523,37.58
20.050,513.875,37.73
20.067,435.214,37.88
20.083,349.621,38.03
20.100,268.239,38.18
20.117,198.743,38.33
20.133,145.101,38.48
20.150,106.484,38.64
20.167,79.929,38.79
20.183,61.827,38.94
20.200,49.382,39.09
20.217,40.583,39.24
20.233,34.575,39.40
20.250,30.180,39.55
20.267,26.905,39.70
20.283,24.572,39.86
20.300,23.106,40.01
20.317,22.624,40.17
20.333,23.511,40.32
20.350,26.513,40.48
20.367,33.251,40.63
20.383,46.419,40.79
20.400,69.860,40.94
20.417,109.337,41.10
20.433,171.690,41.26
20.450,262.951,41.42
20.467,385.225,41.57
20.483,536.904,41.73
20.500,704.664,41.89
20.517,867.561,42.05
20.533,997.135,42.21
20.550,1066.241,42.37
20.567,1057.164,42.52
20.583,969.428,42.68
20.600,821.625,42.84
20.617,644.380,43.00
20.633,470.108,43.17
20.650,324.683,43.33
20.667,217.467,43.49
20.683,147.340,43.65
20.700,105.080,43.81
20.717,82.506,43.97
20.733,73.386,44.14
20.750,68.227,44.30
20.767,78.504,44.46
20.783,153.970,44.63
20.800,342.756,44.79
20.817,638.300,44.95
20.833,976.007,45.12
20.850,1270.100,45.28
20.867,1457.811,45.45
20.883,1529.109,45.61
20.900,1512.214,45.78
20.917,1430.010,45.94
20.933,1297.903,46.11
20.950,1139.376,46.28
20.967,974.130,46.44
20.983,810.245,46.61
21.000,654.200,46.78
21.017,512.679,46.95
21.033,389.338,47.11
21.050,287.485,47.28
21.067,209.375,47.45
21.083,154.454,47.62
21.100,118.205,47.79
21.117,95.787,47.96
21.133,83.129,48.13
21.150,77.256,48.30
21.167,77.575,48.47
21.183,84.656,48.64
21.200,99.484,48.81
21.217,121.579,48.98
21.233,148.472,49.16
21.250,175.599,49.33
21.267,198.790,49.50
21.283,215.089,49.67
21.300,223.749,49.85
21.317,224.657,50.02
21.333,218.737,50.19
21.350,207.238,50.37
21.367,191.834,50.54
21.383,174.575,50.72
21.400,157.899,50.89
21.417,143.061,51.07
21.433,130.583,51.24
21.450,120.528,51.42
21.467,113.129,51.59
21.483,108.146,51.77
21.500,105.390,51.95
21.517,103.638,52.13
21.533,101.929,52.30
21.550,99.427,52.48
21.567,95.079,52.66
21.583,88.168,52.84
21.600,78.506,53.01
21.617,67.230,53.19
21.633,56.186,53.37
21.650,47.452,53.55
21.667,41.576,53.73
21.683,37.859,53.91
21.700,35.680,54.09
21.717,34.590,54.27
21.733,34.098,54.45
21.750,33.841,54.64
21.767,33.768,54.82
21.783,33.589,55.00
21.800,32.853,55.18
21.817,31.648,55.36
21.833,30.187,55.55
21.850,29.008,55.73
21.867,28.522,55.91
21.883,29.059,56.10
21.900,30.805,56.28
21.917,33.908,56.46
21.933,38.754,56.65
21.950,46.265,56.83
21.967,59.178,57.02
21.983,81.387,57.21
22.000,116.480,57.39
22.017,165.125,57.58
22.033,223.285,57.76
22.050,283.740,57.95
22.067,341.563,58.14
22.083,396.463,58.32
22.100,449.909,58.51
22.117,500.234,58.70
22.133,540.488,58.89
22.150,561.190,59.08
22.167,556.587,59.26
22.183,527.982,59.45
22.200,481.201,59.64
22.217,422.911,59.83
22.233,358.789,60.02
22.250,293.361,60.21
22.267,230.686,60.40
22.283,174.314,60.59
22.300,126.897,60.78
22.317,89.981,60.98
22.333,63.601,61.17
22.350,46.327,61.36
22.367,35.645,61.55
22.383,29.135,61.74
22.400,25.078,61.94
22.417,22.722,62.13
22.433,22.181,62.32
22.450,23.880,62.52
22.467,28.451,62.71
22.483,35.958,62.91
22.500,45.884,63.10
22.517,57.154,63.29
22.533,68.762,63.49
22.550,80.404,63.69
22.567,92.614,63.88
22.583,107.275,64.08
22.600,126.381,64.27
22.617,151.143,64.47
22.633,181.356,64.67
22.650,214.952,64.86
22.667,248.517,65.06
22.683,278.394,65.26
22.700,302.244,65.46
22.717,319.830,65.66
22.733,332.513,65.85
22.750,342.487,66.05
22.767,349.888,66.25
22.783,352.705,66.45
22.800,347.583,66.65
22.817,332.598,66.85
22.833,308.452,67.05
22.850,277.449,67.25
22.867,242.635,67.45
22.883,206.554,67.65
22.900,170.966,67.85
22.917,137.449,68.06
22.933,107.287,68.26
22.950,82.024,68.46
22.967,62.571,68.66
22.983,49.573,68.87
23.000,43.207,69.07
23.017,41.911,69.27
23.033,43.721,69.48
23.050,46.566,69.68
23.067,48.883,69.88
23.083,49.792,70.09
23.100,49.297,70.29
23.117,47.662,70.50
23.133,44.916,70.70
23.150,40.788,70.91
23.167,35.351,71.11
23.183,28.858,71.32
23.200,22.098,71.53
23.217,16.297,71.73
23.233,12.421,71.94
23.250,10.336,72.15
23.267,9.673,72.35
23.283,9.651,72.56
23.300,9.826,72.77
23.317,9.933,72.98
23.333,9.991,73.19
23.350,10.136,73.40
23.367,10.244,73.61
23.383,10.399,73.81
23.400,10.737,74.02
23.417,11.104,74.23
23.433,11.463,74.44
23.450,11.443,74.65
23.467,11.413,74.87
23.483,11.403,75.08
23.500,11.261,75.29
23.517,11.111,75.50
23.533,10.946,75.71
23.550,10.757,75.92
23.567,10.886,76.14
23.583,11.551,76.35
23.600,13.139,76.56
23.617,15.784,76.77
23.633,19.654,76.99
23.650,24.159,77.20
23.667,28.633,77.42
23.683,32.807,77.63
23.700,36.465,77.84
23.717,39.001,78.06
23.733,40.570,78.27
23.750,40.772,78.49
23.767,39.648,78.70
23.783,37.419,78.92
23.800,34.081,79.14
23.817,29.752,79.35
23.833,24.766,79.57
23.850,19.728,79.79
23.867,15.238,80.00
23.883,11.370,80.22
23.900,8.160,80.44
23.917,5.387,80.66
23.933,3.190,80.87
23.950,1.515,81.09
23.967,0.135,81.31
23.983,-0.922,81.53
24.000,-1.854,81.75
24.017,-2.591,81.97
24.033,-3.071,82.19
24.050,-3.244,82.41
24.067,-3.548,82.63
24.083,-3.800,82.85
24.100,-3.886,83.07
24.117,-3.769,83.29
24.133,-3.729,83.51
24.150,-3.749,83.73
24.167,-3.753,83.96
24.183,-3.689,84.18
24.200,-3.399,84.40
24.217,-2.914,84.62
24.233,-2.419,84.85
24.250,-1.996,85.07
24.267,-1.478,85.29
24.283,-0.709,85.52
24.300,0.134,85.74
24.317,0.780,85.96
24.333,1.193,86.19
24.350,1.233,86.41
24.367,1.228,86.64
24.383,1.214,86.86
24.400,1.265,87.09
24.417,1.259,87.31
24.433,1.423,87.54
24.450,1.861,87.77
24.467,2.507,87.99
24.483,3.152,88.22
24.500,3.818,88.45
24.517,4.349,88.67
24.533,4.722,88.90
24.550,5.003,89.13
24.567,5.197,89.36
24.583,5.186,89.58
24.600,4.885,89.81
24.617,4.291,90.04
24.633,3.453,90.27
24.650,2.423,90.50
24.667,1.391,90.73
24.683,0.480,90.96
24.700,-0.351,91.19
24.717,-1.092,91.42
24.733,-1.802,91.65
24.750,-2.383,91.88
24.767,-2.836,92.11
24.783,-3.198,92.34
24.800,-3.453,92.57
24.817,-3.681,92.80
24.833,-3.842,93.04
24.850,-3.876,93.27
24.867,-3.800,93.50
24.883,-3.796,93.73
24.900,-3.911,93.96
24.917,-3.926,94.20
24.933,-3.831,94.43
24.950,-3.680,94.66
24.967,-3.500,94.90
24.983,-3.412,95.13
25.000,-3.327,95.37
25.017,-3.131,95.60
25.033,-2.690,95.84
25.050,-2.085,96.07
25.067,-1.417,96.31
25.083,-0.605,96.54
25.100,0.524,96.78
25.117,2.219,97.01
25.133,4.686,97.25
25.150,8.320,97.49
25.167,13.495,97.72
25.183,20.561,97.96
25.200,29.817,98.20
25.217,41.156,98.43
25.233,54.056,98.67
25.250,67.414,98.91
25.267,79.759,99.15
25.283,89.552,99.38
25.300,95.754,99.62
25.317,98.350,99.86
25.333,97.680,100.10
25.350,94.465,100.34
25.367,89.450,100.58
25.383,83.001,100.82
25.400,75.770,101.06
25.417,68.206,101.30
25.433,60.796,101.54
25.450,54.139,101.78
25.467,48.955,102.02
25.483,45.411,102.26
25.500,43.145,102.50
25.517,41.680,102.74
25.533,40.537,102.99
25.550,39.192,103.23
25.567,37.705,103.47
25.583,36.294,103.71
25.600,34.807,103.96
25.617,32.952,104.20
25.633,30.727,104.44
25.650,28.155,104.69
25.667,25.538,104.93
25.683,23.119,105.17
25.700,21.161,105.42
25.717,19.808,105.66
25.733,19.177,105.91
25.750,20.046,106.15
25.767,22.668,106.39
25.783,26.880,106.64
25.800,32.042,106.89
25.817,37.464,107.13
25.833,42.515,107.38
25.850,46.588,107.62
25.867,49.380,107.87
25.883,50.831,108.12
25.900,50.920,108.36
25.917,49.827,108.61
25.933,47.704,108.86
25.950,44.864,109.10
25.967,41.612,109.35
25.983,38.261,109.60
26.000,35.214,109.85
26.017,32.472,110.10
26.033,30.197,110.34
26.050,28.555,110.59
26.067,27.525,110.84
26.083,27.097,111.09
26.100,27.021,111.34
26.117,26.860,111.59
26.133,26.575,111.84
26.150,26.059,112.09
26.167,25.136,112.34
26.183,23.494,112.59
26.200,21.498,112.84
26.217,19.247,113.09
26.233,16.693,113.34
26.250,14.265,113.59
26.267,11.768,113.84
26.283,9.189,114.10
26.300,6.868,114.35
26.317,5.002,114.60
26.333,3.491,114.85
26.350,2.290,115.11
26.367,1.410,115.36
26.383,0.688,115.61
26.400,0.151,115.86
26.417,-0.304,116.12
26.433,-0.655,116.37
26.450,-0.935,116.63
26.467,-1.108,116.88
26.483,-1.214,117.13
26.500,-1.410,117.39
26.517,-1.568,117.64
26.533,-1.687,117.90
26.550,-1.784,118.15
26.567,-1.776,118.41
26.583,-1.898,118.66
26.600,-2.005,118.92
26.617,-2.048,119.17
26.633,-1.868,119.43
26.650,-1.771,119.69
26.667,-1.666,119.94
26.683,-1.517,120.20
26.700,-1.402,120.46
26.717,-1.313,120.71
26.733,-1.262,120.97
26.750,-1.065,121.23
26.767,-0.652,121.49
26.783,0.045,121.75
26.800,0.857,122.00
26.817,1.666,122.26
26.833,2.743,122.52
26.850,4.076,122.78
26.867,5.640,123.04
26.883,7.139,123.30
26.900,8.387,123.56
26.917,9.404,123.82
26.933,10.162,124.08
26.950,10.657,124.34
26.967,10.743,124.60
26.983,10.518,124.86
27.000,10.021,125.12
27.017,9.171,125.38
27.033,8.064,125.64
27.050,6.833,125.90
27.067,5.491,126.16
27.083,4.162,126.42
27.100,2.944,126.68
27.117,1.823,126.95
27.133,0.794,127.21
27.150,-0.008,127.47
27.167,-0.506,127.73
27.183,-0.837,128.00
27.200,-1.042,128.26
27.217,-1.280,128.52
27.233,-1.514,128.79
27.250,-1.657,129.05
27.267,-1.771,129.31
27.283,-1.804,129.58
27.300,-1.853,129.84
27.317,-1.869,130.11
27.333,-1.833,130.37
27.350,-1.781,130.63
27.367,-1.773,130.90
27.383,-1.792,131.16
27.400,-1.679,131.43
27.417,-1.538,131.70
27.433,-1.500,131.96
27.450,-1.506,132.23
27.467,-1.638,132.49
27.483,-1.816,132.76
27.500,-1.899,133.03
27.517,-1.934,133.29
27.533,-1.984,133.56
27.550,-1.963,133.83
27.567,-1.916,134.09
27.583,-1.979,134.36
27.600,-2.130,134.63
27.617,-2.106,134.90
27.633,-1.957,135.16
27.650,-1.894,135.43
27.667,-1.904,135.70
27.683,-2.068,135.97
27.700,-2.247,136.24
27.717,-2.252,136.51
27.733,-2.027,136.77
27.750,-1.666,137.04
27.767,-1.313,137.31
27.783,-0.971,137.58
27.800,-0.710,137.85
27.817,-0.520,138.12
27.833,-0.215,138.39
27.850,0.142,138.66
27.867,0.470,138.93
27.883,0.602,139.20
27.900,0.523,139.47
27.917,0.380,139.75
27.933,0.222,140.02
27.950,0.124,140.29
27.967,0.068,140.56
27.983,0.032,140.83
28.000,0.035,141.10
28.017,-0.035,141.38
28.033,-0.244,141.65
28.050,-0.468,141.92
28.067,-0.535,142.19
28.083,-0.470,142.47
28.100,-0.383,142.74
28.117,-0.346,143.01
28.133,-0.430,143.29
28.150,-0.604,143.56
28.167,-0.782,143.83
28.183,-0.919,144.11
28.200,-1.002,144.38
28.217,-0.994,144.65
28.233,-0.909,144.93
28.250,-0.781,145.20
28.267,-0.714,145.48
28.283,-0.742,145.75
28.300,-0.672,146.03
28.317,-0.319,146.30
28.333,0.269,146.58
28.350,0.796,146.85
28.367,0.931,147.13
28.383,0.627,147.41
28.400,0.079,147.68
28.417,-0.375,147.96
28.433,-0.591,148.24
28.450,-0.643,148.51
28.467,-0.599,148.79
28.483,-0.485,149.07
28.500,-0.405,149.34
28.517,-0.450,149.62
28.533,-0.630,149.90
28.550,-0.749,150.18
28.567,-0.697,150.45
28.583,-0.564,150.73
28.600,-0.415,151.01
28.617,-0.385,151.29
28.633,-0.440,151.57
28.650,-0.531,151.84
28.667,-0.582,152.12
28.683,-0.531,152.40
28.700,-0.470,152.68
28.717,-0.430,152.96
28.733,-0.399,153.24
28.750,-0.380,153.52
28.767,-0.443,153.80
28.783,-0.477,154.08
28.800,-0.433,154.36
28.817,-0.449,154.64
28.833,-0.380,154.92
28.850,-0.279,155.20
28.867,-0.173,155.48
28.883,-0.132,155.76
28.900,-0.153,156.04
28.917,-0.203,156.33
28.933,-0.246,156.61
28.950,-0.274,156.89
28.967,-0.362,157.17
28.983,-0.481,157.45
29.000,-0.523,157.73
29.017,-0.504,158.02
29.033,-0.488,158.30
29.050,-0.389,158.58
29.067,-0.162,158.86
29.083,0.070,159.15
29.100,0.185,159.43
29.117,0.111,159.71
29.133,-0.147,160.00
29.150,-0.261,160.28
29.167,-0.230,160.56
29.183,-0.180,160.85
29.200,-0.119,161.13
29.217,-0.045,161.42
29.233,0.061,161.70
29.250,0.090,161.98
29.267,-0.023,162.27
29.283,-0.133,162.55
29.300,-0.200,162.84
29.317,-0.036,163.12
29.333,-0.001,163.41
29.350,-0.059,163.69
29.367,-0.023,163.98
29.383,-0.011,164.27
29.400,-0.001,164.55
29.417,-0.103,164.84
29.433,-0.010,165.12
29.450,0.253,165.41
29.467,0.563,165.70
29.483,0.774,165.98
29.500,0.697,166.27
29.517,0.456,166.56
29.533,0.322,166.84
29.550,0.343,167.13
29.567,0.414,167.42
29.583,0.433,167.71
29.600,0.516,167.99
29.617,0.506,168.28
29.633,0.559,168.57
29.650,0.580,168.86
29.667,0.662,169.15
29.683,0.734,169.43
29.700,0.681,169.72
29.717,0.550,170.01
29.733,0.545,170.30
29.750,0.380,170.59
29.767,0.374,170.88
29.783,0.544,171.17
29.800,0.746,171.46
29.817,0.713,171.75
29.833,0.547,172.04
29.850,0.305,172.33
29.867,0.068,172.62
29.883,0.033,172.91
29.900,0.172,173.20
29.917,0.113,173.49
29.933,0.071,173.78
29.950,0.041,174.07
29.967,0.026,174.36
29.983,0.018,174.65
30.000,0.027,174.94
30.017,0.052,175.23
30.033,0.030,175.52
30.050,-0.010,175.81
30.067,0.064,176.11
30.083,0.191,176.40
30.100,0.256,176.69
30.117,0.309,176.98
30.133,0.328,177.27
30.150,0.338,177.57
30.167,0.386,177.86
30.183,0.427,178.15
30.200,0.403,178.44
30.217,0.342,178.74
30.233,0.382,179.03
30.250,0.444,179.32
30.267,0.401,179.62
30.283,0.343,179.91
30.300,0.262,180.20
30.317,0.257,180.50
30.333,0.187,180.79
30.350,0.101,181.09
30.367,0.143,181.38
30.383,0.298,181.67
30.400,0.522,181.97
30.417,0.628,182.26
30.433,0.477,182.56
30.450,0.207,182.85
30.467,-0.029,183.15
30.483,-0.080,183.44
30.500,-0.025,183.74
30.517,0.066,184.03
30.533,0.140,184.33
30.550,0.154,184.62
30.567,0.097,184.92
30.583,0.005,185.22
30.600,-0.042,185.51
30.617,-0.017,185.81
30.633,0.020,186.10
30.650,0.043,186.40
30.667,0.083,186.70
30.683,0.094,186.99
30.700,0.041,187.29
30.717,-0.001,187.59
30.733,0.004,187.88
30.750,0.000,188.18
30.767,0.099,188.48
30.783,0.283,188.78
30.800,0.404,189.07
30.817,0.406,189.37
30.833,0.346,189.67
30.850,0.227,189.97
30.867,0.056,190.27
30.883,0.033,190.56
30.900,0.194,190.86
30.917,0.346,191.16
30.933,0.402,191.46
30.950,0.344,191.76
30.967,0.163,192.06
30.983,-0.036,192.36
31.000,-0.143,192.65
31.017,-0.141,192.95
31.033,-0.109,193.25
31.050,-0.061,193.55
31.067,-0.011,193.85
31.083,-0.005,194.15
31.100,-0.057,194.45
31.117,-0.067,194.75
31.133,0.009,195.05
31.150,0.004,195.35
31.167,-0.059,195.65
31.183,-0.073,195.95
31.200,-0.046,196.25
31.217,-0.032,196.55
31.233,0.009,196.85
31.250,0.019,197.15
31.267,-0.030,197.46
31.283,-0.079,197.76
31.300,-0.001,198.06
31.317,0.078,198.36
31.333,0.155,198.66
31.350,0.211,198.96
31.367,0.189,199.26
31.383,0.151,199.57
31.400,0.130,199.87
31.417,0.144,200.17
31.433,0.144,200.47
31.450,0.042,200.77
31.467,-0.024,201.08
31.483,-0.025,201.38
31.500,-0.052,201.68
31.517,-0.073,201.98
31.533,-0.156,202.29
31.550,-0.241,202.59
31.567,-0.311,202.89
31.583,-0.321,203.20
31.600,-0.267,203.50
31.617,-0.213,203.80
31.633,-0.135,204.11
31.650,-0.076,204.41
31.667,-0.128,204.71
31.683,-0.159,205.02
31.700,-0.133,205.32
31.717,-0.029,205.63
31.733,0.028,205.93
31.750,0.252,206.24
31.767,0.793,206.54
31.783,1.376,206.84
31.800,1.690,207.15
31.817,1.469,207.45
31.833,0.864,207.76
31.850,0.299,208.06
31.867,-0.014,208.37
31.883,-0.064,208.67
31.900,-0.143,208.98
31.917,-0.168,209.28
31.933,-0.084,209.59
31.950,0.022,209.90
31.967,0.091,210.20
31.983,0.016,210.51
32.000,-0.144,210.81
32.017,-0.187,211.12
32.033,-0.176,211.43
32.050,-0.132,211.73
32.067,-0.152,212.04
32.083,-0.213,212.34
32.100,-0.348,212.65
32.117,-0.411,212.96
32.133,-0.417,213.27
32.150,-0.353,213.57
32.167,-0.357,213.88
32.183,-0.291,214.19
32.200,-0.257,214.49
32.217,-0.287,214.80
32.233,-0.323,215.11
32.250,-0.320,215.42
32.267,-0.308,215.72
32.283,-0.291,216.03
32.300,-0.256,216.34
32.317,-0.228,216.65
32.333,-0.292,216.96
32.350,-0.403,217.26
32.367,-0.413,217.57
32.383,-0.397,217.88
32.400,-0.362,218.19
32.417,-0.344,218.50
32.433,-0.348,218.81
32.450,-0.321,219.11
32.467,-0.299,219.42
32.483,-0.264,219.73
32.500,-0.312,220.04
32.517,-0.408,220.35
32.533,-0.438,220.66
32.550,-0.362,220.97
32.567,-0.262,221.28
32.583,-0.298,221.59
32.600,-0.418,221.90
32.617,-0.429,222.21
32.633,-0.381,222.52
32.650,-0.163,222.83
32.667,-0.049,223.14
32.683,-0.114,223.45
32.700,-0.343,223.76
32.717,-0.429,224.07
32.733,-0.401,224.38
32.750,-0.318,224.69
32.767,-0.301,225.00
32.783,-0.358,225.31
32.800,-0.395,225.62
32.817,-0.329,225.93
32.833,-0.235,226.24
32.850,-0.306,226.55
32.867,-0.299,226.87
32.883,-0.191,227.18
32.900,-0.005,227.49
32.917,0.157,227.80
32.933,0.054,228.11
32.950,-0.261,228.42
32.967,-0.473,228.73
32.983,-0.536,229.05
33.000,-0.469,229.36
33.017,-0.447,229.67
33.033,-0.406,229.98
33.050,-0.452,230.29
33.067,-0.501,230.61
33.083,-0.523,230.92
33.100,-0.513,231.23
33.117,-0.423,231.54
33.133,-0.313,231.86
33.150,-0.338,232.17
33.167,-0.414,232.48
33.183,-0.453,232.80
33.200,-0.437,233.11
33.217,-0.358,233.42
33.233,-0.237,233.73
33.250,-0.165,234.05
33.267,-0.214,234.36
33.283,-0.339,234.67
33.300,-0.471,234.99
33.317,-0.461,235.30
33.333,-0.317,235.62
33.350,0.157,235.93
33.367,-0.303,236.24
33.383,-0.591,236.56
33.400,1.907,236.87
33.417,6.755,237.19
33.433,10.733,237.50
33.450,11.092,237.81
33.467,7.667,238.13
33.483,2.974,238.44
33.500,0.185,238.76
33.517,0.365,239.07
33.533,0.996,239.39
33.550,0.947,239.70
33.567,0.992,240.02
33.583,1.375,240.33
33.600,1.937,240.65
33.617,2.390,240.96
33.633,2.772,241.28
33.650,3.090,241.59
33.667,3.238,241.91
33.683,3.178,242.22
33.700,2.850,242.54
33.717,2.226,242.85
33.733,1.378,243.17
33.750,0.666,243.49
33.767,0.326,243.80
33.783,0.249,244.12
33.800,0.360,244.43
33.817,0.463,244.75
33.833,0.395,245.07
33.850,0.209,245.38
33.867,-0.049,245.70
33.883,-0.280,246.02
33.900,-0.369,246.33
33.917,-0.284,246.65
33.933,-0.157,246.97
33.950,-0.128,247.28
33.967,-0.173,247.60
33.983,-0.249,247.92
34.000,-0.363,248.23
34.017,-0.466,248.55
34.033,-0.511,248.87
34.050,-0.483,249.18
34.067,-0.375,249.50
34.083,-0.280,249.82
34.100,-0.296,250.14
34.117,-0.352,250.45
34.133,-0.340,250.77
34.150,-0.300,251.09
34.167,-0.255,251.41
34.183,-0.174,251.72
34.200,-0.128,252.04
34.217,-0.143,252.36
34.233,-0.218,252.68
34.250,-0.304,253.00
34.267,-0.335,253.31
34.283,-0.240,253.63
34.300,-0.154,253.95
34.317,-0.106,254.27
34.333,0.082,254.59
34.350,0.330,254.91
34.367,0.438,255.23
34.383,0.310,255.54
34.400,0.096,255.86
34.417,0.015,256.18
34.433,0.080,256.50
34.450,0.172,256.82
34.467,0.039,257.14
34.483,-0.280,257.46
34.500,-0.531,257.78
34.517,-0.621,258.10
34.533,-0.577,258.42
34.550,-0.588,258.74
34.567,-0.558,259.06
34.583,-0.493,259.37
34.600,-0.456,259.69
34.617,-0.474,260.01
34.633,-0.539,260.33
34.650,-0.661,260.65
34.667,-0.692,260.97
34.683,-0.623,261.29
34.700,-0.538,261.61
34.717,-0.399,261.93
34.733,-0.245,262.25
34.750,-0.151,262.57
34.767,-0.211,262.89
34.783,-0.265,263.21
34.800,-0.296,263.54
34.817,-0.212,263.86
34.833,-0.128,264.18
34.850,-0.207,264.50
34.867,-0.427,264.82
34.883,-0.535,265.14
34.900,-0.483,265.46
34.917,-0.252,265.78
34.933,-0.095,266.10
34.950,-0.009,266.42
34.967,-0.054,266.74
34.983,-0.080,267.06
35.000,-0.195,267.39
35.017,-0.188,267.71
35.033,-0.189,268.03
35.050,-0.209,268.35
35.067,-0.236,268.67
35.083,-0.217,268.99
35.100,-0.195,269.31
35.117,-0.179,269.64
35.133,-0.139,269.96
35.150,-0.116,270.28
35.167,-0.243,270.60
35.183,-0.275,270.92
35.200,-0.163,271.25
35.217,-0.074,271.57
35.233,-0.124,271.89
35.250,-0.249,272.21
35.267,-0.440,272.53
35.283,-0.456,272.86
35.300,-0.230,273.18
35.317,0.003,273.50
35.333,-0.005,273.82
35.350,-0.158,274.15
35.367,-0.176,274.47
35.383,-0.166,274.79
35.400,-0.045,275.11
35.417,0.063,275.44
35.433,0.004,275.76
35.450,-0.071,276.08
35.467,-0.092,276.41
35.483,-0.073,276.73
35.500,-0.038,277.05
35.517,0.017,277.37
35.533,0.015,277.70
35.550,-0.122,278.02
35.567,-0.248,278.34
35.583,-0.251,278.67
35.600,-0.130,278.99
35.617,0.021,279.31
35.633,0.074,279.64
35.650,0.059,279.96
35.667,0.021,280.29
35.683,-0.075,280.61
35.700,-0.140,280.93
35.717,-0.175,281.26
35.733,-0.242,281.58
35.750,-0.264,281.90
35.767,-0.354,282.23
35.783,-0.400,282.55
35.800,-0.458,282.88
35.817,-0.319,283.20
35.833,-0.159,283.52
35.850,-0.102,283.85
35.867,-0.040,284.17
35.883,-0.188,284.50
35.900,-0.259,284.82
35.917,-0.114,285.15
35.933,0.026,285.47
35.950,0.175,285.80
35.967,0.063,286.12
35.983,-0.132,286.44
36.000,-0.322,286.77
36.017,-0.294,287.09
36.033,-0.073,287.42
36.050,0.006,287.74
36.067,-0.009,288.07
36.083,-0.117,288.39
36.100,-0.261,288.72
36.117,-0.372,289.04
36.133,-0.414,289.37
36.150,-0.340,289.69
36.167,-0.176,290.02
36.183,-0.032,290.34
36.200,0.051,290.67
36.217,-0.008,290.99
36.233,-0.109,291.32
36.250,-0.140,291.65
36.267,-0.100,291.97
36.283,-0.060,292.30
36.300,-0.055,292.62
36.317,-0.105,292.95
36.333,-0.134,293.27
36.350,-0.105,293.60
36.367,-0.085,293.93
36.383,-0.099,294.25
36.400,-0.104,294.58
36.417,-0.094,294.90
36.433,-0.023,295.23
36.450,0.076,295.55
36.467,0.108,295.88
36.483,0.072,296.21
36.500,0.002,296.53
36.517,-0.081,296.86
36.533,-0.139,297.19
36.550,-0.132,297.51
36.567,-0.117,297.84
36.583,-0.140,298.16
36.600,-0.166,298.49
36.617,-0.174,298.82
36.633,-0.127,299.14
36.650,0.017,299.47
36.667,0.151,299.80
36.683,0.188,300.12
36.700,0.188,300.45
36.717,0.192,300.78
36.733,0.217,301.10
36.750,0.192,301.43
36.767,0.057,301.76
36.783,-0.107,302.08
36.800,-0.173,302.41
36.817,-0.087,302.74
36.833,0.056,303.07
36.850,0.112,303.39
36.867,0.044,303.72
36.883,-0.067,304.05
36.900,-0.055,304.37
36.917,0.110,304.70
36.933,0.152,305.03
36.950,0.045,305.36
36.967,0.364,305.68
36.983,0.948,306.01
37.000,1.373,306.34
37.017,1.321,306.67
37.033,0.790,306.99
37.050,0.191,307.32
37.067,-0.031,307.65
37.083,0.136,307.98
37.100,0.241,308.30
37.117,0.041,308.63
37.133,0.048,308.96
37.150,0.068,309.29
37.167,0.029,309.62
37.183,-0.049,309.94
37.200,-0.119,310.27
37.217,-0.094,310.60
37.233,0.058,310.93
37.250,0.132,311.26
37.267,0.080,311.58
37.283,-0.003,311.91
37.300,0.012,312.24
37.317,0.032,312.57
37.333,0.030,312.90
37.350,0.008,313.22
37.367,-0.051,313.55
37.383,-0.064,313.88
37.400,-0.023,314.21
37.417,-0.063,314.54
37.433,-0.151,314.87
37.450,-0.174,315.19
37.467,-0.184,315.52
37.483,-0.212,315.85
37.500,-0.187,316.18
37.517,-0.184,316.51
37.533,-0.205,316.84
37.550,-0.195,317.17
37.567,-0.223,317.50
37.583,-0.229,317.82
37.600,-0.201,318.15
37.617,-0.252,318.48
37.633,-0.307,318.81
37.650,-0.297,319.14
37.667,-0.221,319.47
37.683,-0.083,319.80
37.700,-0.022,320.13
37.717,-0.043,320.46
37.733,-0.145,320.78
37.750,-0.233,321.11
37.767,-0.161,321.44
37.783,-0.154,321.77
37.800,-0.115,322.10
37.817,-0.122,322.43
37.833,-0.160,322.76
37.850,-0.163,323.09
37.867,-0.132,323.42
37.883,-0.096,323.75
37.900,-0.189,324.08
37.917,-0.320,324.41
37.933,-0.357,324.74
37.950,-0.278,325.07
37.967,-0.313,325.39
37.983,-0.277,325.72
38.000,-0.190,326.05
38.017,-0.025,326.38
38.033,0.163,326.71
38.050,0.204,327.04
38.067,0.169,327.37
38.083,0.147,327.70
38.100,0.107,328.03
38.117,0.209,328.36
38.133,0.098,328.69
38.150,0.028,329.02
38.167,-0.111,329.35
38.183,-0.171,329.68
38.200,-0.186,330.01
38.217,-0.269,330.34
38.233,-0.229,330.67
38.250,-0.077,331.00
38.267,0.068,331.33
38.283,0.209,331.66
38.300,0.253,331.99
38.317,0.132,332.32
38.333,-0.010,332.65
38.350,-0.093,332.98
38.367,0.041,333.31
38.383,0.179,333.64
38.400,0.270,333.97
38.417,0.366,334.30
38.433,0.311,334.63
38.450,0.222,334.96
38.467,0.093,335.29
38.483,0.074,335.62
38.500,0.124,335.95
38.517,0.115,336.29
38.533,0.154,336.62
38.550,0.108,336.95
38.567,0.062,337.28
38.583,0.087,337.61
38.600,0.100,337.94
38.617,0.150,338.27
38.633,0.173,338.60
38.650,0.230,338.93
38.667,0.214,339.26
38.683,0.124,339.59
38.700,0.033,339.92
38.717,0.056,340.25
38.733,0.204,340.58
38.750,0.372,340.91
38.767,0.503,341.24
38.783,0.506,341.58
38.800,0.402,341.91
38.817,0.292,342.24
38.833,0.271,342.57
38.850,0.249,342.90
38.867,0.186,343.23
38.883,0.154,343.56
38.900,0.174,343.89
38.917,0.080,344.22
38.933,0.107,344.55
38.950,0.193,344.88
38.967,0.356,345.22
38.983,0.567,345.55
39.000,0.706,345.88
39.017,0.590,346.21
39.033,0.261,346.54
39.050,0.008,346.87
39.067,-0.070,347.20
39.083,-0.113,347.53
39.100,-0.063,347.87
39.117,-0.117,348.20
39.133,-0.256,348.53
39.150,-0.295,348.86
39.167,-0.170,349.19
39.183,-0.011,349.52
39.200,-0.016,349.85
39.217,-0.115,350.18
39.233,-0.203,350.52
39.250,-0.171,350.85
39.267,-0.056,351.18
39.283,-0.025,351.51
39.300,-0.164,351.84
39.317,-0.279,352.17
39.333,-0.252,352.50
39.350,-0.126,352.84
39.367,-0.031,353.17
39.383,-0.055,353.50
39.400,-0.132,353.83
39.417,-0.166,354.16
39.433,-0.102,354.49
39.450,-0.140,354.83
39.467,-0.228,355.16
39.483,-0.143,355.49
39.500,0.017,355.82
39.517,0.234,356.15
39.533,0.487,356.48
39.550,0.669,356.82
39.567,0.739,357.15
39.583,0.642,357.48
39.600,0.441,357.81
39.617,0.172,358.14
39.633,0.003,358.47
39.650,-0.022,358.81
39.667,-0.072,359.14
39.683,-0.021,359.47
39.700,0.086,359.80
39.717,0.189,360.13
39.733,0.254,360.47
39.750,0.141,360.80
39.767,-0.077,361.13
39.783,-0.165,361.46
39.800,-0.036,361.79
39.817,0.132,362.12
39.833,0.126,362.46
39.850,-0.017,362.79
39.867,-0.230,363.12
39.883,-0.335,363.45
39.900,-0.282,363.78
39.917,-0.222,364.12
39.933,-0.236,364.45
39.950,-0.243,364.78
39.967,-0.149,365.11
39.983,-0.006,365.44
40.000,0.083,365.78
40.017,0.133,366.11
40.033,0.166,366.44
40.050,0.188,366.77
40.067,0.117,367.11
40.083,0.008,367.44
40.100,-0.061,367.77
40.117,-0.017,368.10
40.133,0.035,368.43
40.150,0.001,368.77
40.167,-0.073,369.10
40.183,-0.060,369.43
40.200,-0.027,369.76
40.217,-0.025,370.10
40.233,-0.046,370.43
40.250,-0.008,370.76
40.267,-0.010,371.09
40.283,0.023,371.42
40.300,0.010,371.76
40.317,-0.049,372.09
40.333,-0.148,372.42
40.350,-0.130,372.75
40.367,-0.166,373.09
40.383,-0.114,373.42
40.400,-0.073,373.75
40.417,0.016,374.08
40.433,0.040,374.42
40.450,-0.031,374.75
40.467,-0.174,375.08
40.483,-0.299,375.41
40.500,-0.380,375.74
40.517,-0.328,376.08
40.533,-0.278,376.41
40.550,-0.162,376.74
40.567,-0.037,377.07
40.583,0.094,377.41
40.600,0.153,377.74
40.617,0.085,378.07
40.633,-0.080,378.40
40.650,-0.224,378.74
40.667,-0.273,379.07
40.683,-0.224,379.40
40.700,-0.227,379.73
40.717,-0.253,380.07
40.733,-0.213,380.40
40.750,-0.264,380.73
40.767,-0.223,381.06
40.783,-0.123,381.40
40.800,-0.131,381.73
40.817,-0.175,382.06
40.833,-0.172,382.39
40.850,-0.231,382.73
40.867,-0.292,383.06
40.883,-0.257,383.39
40.900,-0.289,383.72
40.917,-0.387,384.06
40.933,-0.377,384.39
40.950,-0.332,384.72
40.967,-0.326,385.05
40.983,-0.191,385.39
41.000,-0.064,385.72
41.017,-0.069,386.05
41.033,-0.111,386.38
41.050,-0.214,386.72
41.067,-0.261,387.05
41.083,-0.278,387.38
41.100,-0.096,387.72
41.117,-0.058,388.05
41.133,-0.166,388.38
41.150,-0.286,388.71
41.167,-0.356,389.05
41.183,-0.367,389.38
41.200,-0.327,389.71
41.217,-0.365,390.04
41.233,-0.359,390.38
41.250,-0.432,390.71
41.267,-0.322,391.04
41.283,-0.239,391.37
41.300,-0.153,391.71
41.317,-0.092,392.04
41.333,-0.062,392.37
41.350,-0.147,392.70
41.367,-0.285,393.04
41.383,-0.366,393.37
41.400,-0.400,393.70
41.417,-0.409,394.04
41.433,-0.376,394.37
41.450,-0.225,394.70
41.467,-0.015,395.03
41.483,0.186,395.37
41.500,0.582,395.70
41.517,0.961,396.03
41.533,1.176,396.36
41.550,1.225,396.70
41.567,1.028,397.03
41.583,0.692,397.36
41.600,0.370,397.69
41.617,0.198,398.03
41.633,0.096,398.36
41.650,0.256,398.69
