VERSION=1.3
ExportFileName=PM VB 16_2025-05-14_13-24-16_labchip_PURE_Data_E10
SampleLabel=E10
SampleName=PM VB 16
SampleComment=
SampleAreaConcRatio=0.014886
SampleLowerMarkerTime=12.20
SampleUpperMarkerTime=-1.00
SamplePeakTimes=12.20,12.98,15.23,15.45,15.58,17.25,17.83,18.12,18.23,18.37,18.48,18.68,18.98,19.28,19.53,19.65,19.98,20.58,20.93,21.33,22.18,22.78,23.12,23.72,24.33,25.32,25.88
SamplePeakSizes=1.380,2.360,7.786,8.554,9.051,16.888,20.374,22.211,22.995,23.910,24.728,26.168,28.415,30.769,32.812,33.790,36.672,42.183,45.587,49.646,58.854,65.817,69.844,77.372,85.468,99.092,107.317
SamplePeakQuantities=,,,,,8.0265,2.7949,5.1208,50.4835,60.3467,61.7709,15.2951,9.3601,5.2528,17.3643,12.8016,175.8130,196.9268,347.6420,103.9532,166.8480,144.6882,16.4840,22.1676,22.2202,59.5612,40.9273
PlateFileName=2025-05-14_13-24-16_labchip_PURE
PlateAssayName=HT Protein Express 200
PlateBarCode=N/A
WellAquisitionTime=5/14/2025 2:35:06 PM 
PlateDataFrequency=60
PlateDataStartTime=11.00
PlateDataEndTime=42.00
PlateConcUnits=ng/ul
PlateSizeUnits=kDa
PlateLadderSizes=1.40,15.90,20.40,28.90,48.40,68.40,119.20
ChipID=H296P-0563N-03
Operator=ACJS
DATA
Time,Value,Size
0.000,28.225,0.00
0.017,28.366,0.00
0.033,28.553,0.00
0.050,28.706,0.00
0.067,28.677,0.00
0.083,28.540,0.00
0.100,28.391,0.00
0.117,28.322,0.00
0.133,28.190,0.00
0.150,28.086,0.00
0.167,28.183,0.00
0.183,28.445,0.00
0.200,28.832,0.00
0.217,29.104,0.00
0.233,29.125,0.00
0.250,28.918,0.00
0.267,28.423,0.00
0.283,27.736,0.00
0.300,26.998,0.00
0.317,26.294,0.00
0.333,25.652,0.00
0.350,25.104,0.00
0.367,24.503,0.00
0.383,23.757,0.00
0.400,22.960,0.00
0.417,22.185,0.00
0.433,21.270,0.00
0.450,20.195,0.00
0.467,19.137,0.00
0.483,18.119,0.00
0.500,17.132,0.00
0.517,16.181,0.00
0.533,15.210,0.00
0.550,14.296,0.00
0.567,13.458,0.00
0.583,12.728,0.00
0.600,12.005,0.00
0.617,11.258,0.00
0.633,10.563,0.00
0.650,9.877,0.00
0.667,9.183,0.00
0.683,8.499,0.00
0.700,7.866,0.00
0.717,7.274,0.00
0.733,6.719,0.00
0.750,6.159,0.00
0.767,5.613,0.00
0.783,5.123,0.00
0.800,4.690,0.00
0.817,4.273,0.00
0.833,3.833,0.00
0.850,3.430,0.00
0.867,3.142,0.00
0.883,2.877,0.00
0.900,2.616,0.00
0.917,2.284,0.00
0.933,1.925,0.00
0.950,1.609,0.00
0.967,1.294,0.00
0.983,1.041,0.00
1.000,0.804,0.00
1.017,0.602,0.00
1.033,0.402,0.00
1.050,0.128,0.00
1.067,-0.074,0.00
1.083,-0.243,0.00
1.100,-0.419,0.00
1.117,-0.641,0.00
1.133,-0.962,0.00
1.150,-1.296,0.00
1.167,-1.533,0.00
1.183,-1.637,0.00
1.200,-1.726,0.00
1.217,-1.850,0.00
1.233,-1.972,0.00
1.250,-2.136,0.00
1.267,-2.355,0.00
1.283,-2.543,0.00
1.300,-2.722,0.00
1.317,-2.903,0.00
1.333,-3.039,0.00
1.350,-3.146,0.00
1.367,-3.233,0.00
1.383,-3.295,0.00
1.400,-3.405,0.00
1.417,-3.491,0.00
1.433,-3.587,0.00
1.450,-3.668,0.00
1.467,-3.767,0.00
1.483,-3.899,0.00
1.500,-4.079,0.00
1.517,-4.234,0.00
1.533,-4.296,0.00
1.550,-4.326,0.00
1.567,-4.459,0.00
1.583,-4.547,0.00
1.600,-4.627,0.00
1.617,-4.713,0.00
1.633,-4.765,0.00
1.650,-4.799,0.00
1.667,-4.872,0.00
1.683,-4.982,0.00
1.700,-5.050,0.00
1.717,-5.147,0.00
1.733,-5.276,0.00
1.750,-5.299,0.00
1.767,-5.319,0.00
1.783,-5.381,0.00
1.800,-5.469,0.00
1.817,-5.553,0.00
1.833,-5.608,0.00
1.850,-5.690,0.00
1.867,-5.768,0.00
1.883,-5.850,0.00
1.900,-5.962,0.00
1.917,-6.058,0.00
1.933,-6.125,0.00
1.950,-6.149,0.00
1.967,-6.155,0.00
1.983,-6.199,0.00
2.000,-6.289,0.00
2.017,-6.433,0.00
2.033,-6.528,0.00
2.050,-6.524,0.00
2.067,-6.502,0.00
2.083,-6.573,0.00
2.100,-6.677,0.00
2.117,-6.801,0.00
2.133,-6.896,0.00
2.150,-6.977,0.00
2.167,-7.013,0.00
2.183,-7.093,0.00
2.200,-7.183,0.00
2.217,-7.225,0.00
2.233,-7.208,0.00
2.250,-7.230,0.00
2.267,-7.240,0.00
2.283,-7.310,0.00
2.300,-7.381,0.00
2.317,-7.410,0.00
2.333,-7.411,0.00
2.350,-7.405,0.00
2.367,-7.451,0.00
2.383,-7.498,0.00
2.400,-7.562,0.00
2.417,-7.699,0.00
2.433,-7.815,0.00
2.450,-7.867,0.00
2.467,-7.944,0.00
2.483,-8.015,0.00
2.500,-8.084,0.00
2.517,-8.125,0.00
2.533,-8.180,0.00
2.550,-8.155,0.00
2.567,-8.098,0.00
2.583,-8.129,0.00
2.600,-8.141,0.00
2.617,-8.171,0.00
2.633,-8.291,0.00
2.650,-8.386,0.00
2.667,-8.426,0.00
2.683,-8.447,0.00
2.700,-8.480,0.00
2.717,-8.503,0.00
2.733,-8.559,0.00
2.750,-8.657,0.00
2.767,-8.686,0.00
2.783,-8.734,0.00
2.800,-8.754,0.00
2.817,-8.773,0.00
2.833,-8.753,0.00
2.850,-8.779,0.00
2.867,-8.812,0.00
2.883,-8.842,0.00
2.900,-8.906,0.00
2.917,-8.962,0.00
2.933,-8.988,0.00
2.950,-9.073,0.00
2.967,-9.136,0.00
2.983,-9.109,0.00
3.000,-9.053,0.00
3.017,-9.111,0.00
3.033,-9.233,0.00
3.050,-9.364,0.00
3.067,-9.435,0.00
3.083,-9.436,0.00
3.100,-9.426,0.00
3.117,-9.504,0.00
3.133,-9.616,0.00
3.150,-9.663,0.00
3.167,-9.673,0.00
3.183,-9.683,0.00
3.200,-9.699,0.00
3.217,-9.701,0.00
3.233,-9.712,0.00
3.250,-9.745,0.00
3.267,-9.769,0.00
3.283,-9.817,0.00
3.300,-9.880,0.00
3.317,-9.936,0.00
3.333,-9.978,0.00
3.350,-9.988,0.00
3.367,-10.010,0.00
3.383,-10.190,0.00
3.400,-10.602,0.00
3.417,-11.160,0.00
3.433,-11.719,0.00
3.450,-12.218,0.00
3.467,-12.560,0.00
3.483,-12.809,0.00
3.500,-13.000,0.00
3.517,-13.212,0.00
3.533,-13.406,0.00
3.550,-13.621,0.00
3.567,-13.799,0.00
3.583,-13.885,0.00
3.600,-13.930,0.00
3.617,-14.037,0.00
3.633,-14.153,0.00
3.650,-14.269,0.00
3.667,-14.331,0.00
3.683,-14.356,0.00
3.700,-14.378,0.00
3.717,-14.453,0.00
3.733,-14.563,0.00
3.750,-14.630,0.00
3.767,-14.630,0.00
3.783,-14.585,0.00
3.800,-14.496,0.00
3.817,-14.442,0.00
3.833,-14.460,0.00
3.850,-14.467,0.00
3.867,-14.500,0.00
3.883,-14.513,0.00
3.900,-14.514,0.00
3.917,-14.458,0.00
3.933,-14.381,0.00
3.950,-14.296,0.00
3.967,-14.250,0.00
3.983,-14.266,0.00
4.000,-14.333,0.00
4.017,-14.359,0.00
4.033,-14.325,0.00
4.050,-14.245,0.00
4.067,-14.135,0.00
4.083,-14.109,0.00
4.100,-14.215,0.00
4.117,-14.389,0.00
4.133,-14.472,0.00
4.150,-14.439,0.00
4.167,-14.382,0.00
4.183,-14.370,0.00
4.200,-14.440,0.00
4.217,-14.544,0.00
4.233,-14.561,0.00
4.250,-14.540,0.00
4.267,-14.525,0.00
4.283,-14.525,0.00
4.300,-14.472,0.00
4.317,-14.424,0.00
4.333,-14.382,0.00
4.350,-14.374,0.00
4.367,-14.380,0.00
4.383,-14.392,0.00
4.400,-14.422,0.00
4.417,-14.434,0.00
4.433,-14.492,0.00
4.450,-14.502,0.00
4.467,-14.446,0.00
4.483,-14.351,0.00
4.500,-14.297,0.00
4.517,-14.314,0.00
4.533,-14.307,0.00
4.550,-14.257,0.00
4.567,-14.178,0.00
4.583,-14.069,0.00
4.600,-14.047,0.00
4.617,-14.015,0.00
4.633,-13.997,0.00
4.650,-13.970,0.00
4.667,-13.941,0.00
4.683,-13.930,0.00
4.700,-13.874,0.00
4.717,-13.788,0.00
4.733,-13.707,0.00
4.750,-13.664,0.00
4.767,-13.658,0.00
4.783,-13.567,0.00
4.800,-13.428,0.00
4.817,-13.196,0.00
4.833,-12.957,0.00
4.850,-12.751,0.00
4.867,-12.556,0.00
4.883,-12.324,0.00
4.900,-12.022,0.00
4.917,-11.725,0.00
4.933,-11.423,0.00
4.950,-11.086,0.00
4.967,-10.761,0.00
4.983,-10.438,0.00
5.000,-10.157,0.00
5.017,-9.942,0.00
5.033,-9.744,0.00
5.050,-9.462,0.00
5.067,-9.167,0.00
5.083,-8.938,0.00
5.100,-8.746,0.00
5.117,-8.576,0.00
5.133,-8.358,0.00
5.150,-8.177,0.00
5.167,-7.987,0.00
5.183,-7.882,0.00
5.200,-7.777,0.00
5.217,-7.694,0.00
5.233,-7.640,0.00
5.250,-7.627,0.00
5.267,-7.596,0.00
5.283,-7.536,0.00
5.300,-7.376,0.00
5.317,-7.265,0.00
5.333,-7.146,0.00
5.350,-7.048,0.00
5.367,-6.966,0.00
5.383,-6.931,0.00
5.400,-7.001,0.00
5.417,-7.027,0.00
5.433,-7.014,0.00
5.450,-7.107,0.00
5.467,-7.305,0.00
5.483,-7.654,0.00
5.500,-7.981,0.00
5.517,-8.143,0.00
5.533,-8.102,0.00
5.550,-7.957,0.00
5.567,-7.873,0.00
5.583,-7.716,0.00
5.600,-7.569,0.00
5.617,-7.397,0.00
5.633,-7.249,0.00
5.650,-7.181,0.00
5.667,-7.023,0.00
5.683,-6.912,0.00
5.700,-6.818,0.00
5.717,-6.796,0.00
5.733,-6.807,0.00
5.750,-6.806,0.00
5.767,-6.833,0.00
5.783,-6.775,0.00
5.800,-6.733,0.00
5.817,-6.777,0.00
5.833,-6.823,0.00
5.850,-6.903,0.00
5.867,-6.883,0.00
5.883,-6.854,0.00
5.900,-6.786,0.00
5.917,-6.720,0.00
5.933,-6.841,0.00
5.950,-6.896,0.00
5.967,-6.910,0.00
5.983,-6.892,0.00
6.000,-6.949,0.00
6.017,-7.039,0.00
6.033,-7.064,0.00
6.050,-7.057,0.00
6.067,-7.005,0.00
6.083,-6.976,0.00
6.100,-7.045,0.00
6.117,-7.042,0.00
6.133,-7.098,0.00
6.150,-7.205,0.00
6.167,-7.356,0.00
6.183,-7.445,0.00
6.200,-7.435,0.00
6.217,-7.393,0.00
6.233,-7.410,0.00
6.250,-7.517,0.00
6.267,-7.654,0.00
6.283,-7.740,0.00
6.300,-7.784,0.00
6.317,-7.826,0.00
6.333,-7.861,0.00
6.350,-7.844,0.00
6.367,-7.863,0.00
6.383,-7.883,0.00
6.400,-7.895,0.00
6.417,-7.900,0.00
6.433,-8.014,0.00
6.450,-8.142,0.00
6.467,-8.217,0.00
6.483,-8.290,0.00
6.500,-8.351,0.00
6.517,-8.360,0.00
6.533,-8.446,0.00
6.550,-8.524,0.00
6.567,-8.877,0.00
6.583,-13.104,0.00
6.600,4.114,0.00
6.617,7.525,0.00
6.633,-30.308,0.00
6.650,-37.872,0.00
6.667,123.097,0.00
6.683,457.900,0.00
6.700,1089.932,0.00
6.717,1897.365,0.00
6.733,2608.332,0.00
6.750,3026.591,0.00
6.767,3159.664,0.00
6.783,3101.144,0.00
6.800,3000.902,0.00
6.817,2977.015,0.00
6.833,3004.483,0.00
6.850,2954.462,0.00
6.867,2929.739,0.00
6.883,2914.619,0.00
6.900,2908.161,0.00
6.917,2905.237,0.00
6.933,2905.207,0.00
6.950,2908.005,0.00
6.967,2911.794,0.00
6.983,2914.386,0.00
7.000,2915.769,0.00
7.017,2916.184,0.00
7.033,2916.622,0.00
7.050,2918.378,0.00
7.067,2920.628,0.00
7.083,2921.020,0.00
7.100,2922.239,0.00
7.117,2925.368,0.00
7.133,2927.914,0.00
7.150,2930.326,0.00
7.167,2931.337,0.00
7.183,2930.981,0.00
7.200,2930.861,0.00
7.217,2931.238,0.00
7.233,2931.560,0.00
7.250,2931.220,0.00
7.267,2930.411,0.00
7.283,2929.403,0.00
7.300,2927.253,0.00
7.317,2926.940,0.00
7.333,2927.260,0.00
7.350,2925.663,0.00
7.367,2920.814,0.00
7.383,2914.013,0.00
7.400,2907.534,0.00
7.417,2902.973,0.00
7.433,2899.192,0.00
7.450,2893.831,0.00
7.467,2886.301,0.00
7.483,2877.953,0.00
7.500,2870.604,0.00
7.517,2864.495,0.00
7.533,2859.905,0.00
7.550,2855.498,0.00
7.567,2850.879,0.00
7.583,2844.500,0.00
7.600,2836.101,0.00
7.617,2826.780,0.00
7.633,2819.835,0.00
7.650,2813.502,0.00
7.667,2808.571,0.00
7.683,2803.509,0.00
7.700,2796.931,0.00
7.717,2789.893,0.00
7.733,2783.047,0.00
7.750,2776.134,0.00
7.767,2769.450,0.00
7.783,2762.943,0.00
7.800,2757.720,0.00
7.817,2751.753,0.00
7.833,2746.500,0.00
7.850,2741.744,0.00
7.867,2735.702,0.00
7.883,2731.157,0.00
7.900,2726.229,0.00
7.917,2721.142,0.00
7.933,2714.474,0.00
7.950,2708.363,0.00
7.967,2700.992,0.00
7.983,2693.664,0.00
8.000,2687.770,0.00
8.017,2682.789,0.00
8.033,2676.926,0.00
8.050,2671.782,0.00
8.067,2666.162,0.00
8.083,2660.082,0.00
8.100,2654.896,0.00
8.117,2651.143,0.00
8.133,2645.563,0.00
8.150,2639.836,0.00
8.167,2633.772,0.00
8.183,2628.696,0.00
8.200,2623.128,0.00
8.217,2617.550,0.00
8.233,2612.059,0.00
8.250,2606.221,0.00
8.267,2601.402,0.00
8.283,2597.355,0.00
8.300,2593.619,0.00
8.317,2589.622,0.00
8.333,2585.161,0.00
8.350,2581.764,0.00
8.367,2577.640,0.00
8.383,2574.109,0.00
8.400,2570.866,0.00
8.417,2568.875,0.00
8.433,2566.461,0.00
8.450,2565.476,0.00
8.467,2565.011,0.00
8.483,2563.858,0.00
8.500,2560.871,0.00
8.517,2558.299,0.00
8.533,2557.337,0.00
8.550,2557.561,0.00
8.567,2557.701,0.00
8.583,2558.901,0.00
8.600,2558.645,0.00
8.617,2558.189,0.00
8.633,2558.722,0.00
8.650,2558.545,0.00
8.667,2558.133,0.00
8.683,2558.657,0.00
8.700,2559.728,0.00
8.717,2559.079,0.00
8.733,2557.322,0.00
8.750,2556.243,0.00
8.767,2555.114,0.00
8.783,2553.151,0.00
8.800,2551.161,0.00
8.817,2547.377,0.00
8.833,2544.231,0.00
8.850,2541.800,0.00
8.867,2540.229,0.00
8.883,2538.107,0.00
8.900,2535.443,0.00
8.917,2532.904,0.00
8.933,2529.440,0.00
8.950,2527.027,0.00
8.967,2524.247,0.00
8.983,2520.187,0.00
9.000,2515.468,0.00
9.017,2509.287,0.00
9.033,2502.851,0.00
9.050,2496.076,0.00
9.067,2490.049,0.00
9.083,2484.097,0.00
9.100,2477.604,0.00
9.117,2471.928,0.00
9.133,2465.119,0.00
9.150,2456.895,0.00
9.167,2448.997,0.00
9.183,2439.708,0.00
9.200,2436.253,0.00
9.217,2427.040,0.00
9.233,2411.977,0.00
9.250,2405.494,0.00
9.267,2417.074,0.00
9.283,2466.942,0.00
9.300,2548.530,0.00
9.317,2630.170,0.00
9.333,2680.566,0.00
9.350,2690.544,0.00
9.367,2679.778,0.00
9.383,2661.444,0.00
9.400,2650.637,0.00
9.417,2646.157,0.00
9.433,2634.265,0.00
9.450,2622.548,0.00
9.467,2610.741,0.00
9.483,2600.451,0.00
9.500,2591.778,0.00
9.517,2583.728,0.00
9.533,2575.413,0.00
9.550,2564.675,0.00
9.567,2571.992,0.00
9.583,2548.741,0.00
9.600,2526.418,0.00
9.617,2538.452,0.00
9.633,2587.353,0.00
9.650,2652.658,0.00
9.667,2678.685,0.00
9.683,2682.490,0.00
9.700,2646.679,0.00
9.717,2601.885,0.00
9.733,2625.541,0.00
9.750,2690.847,0.00
9.767,2803.798,0.00
9.783,2913.250,0.00
9.800,2984.851,0.00
9.817,2964.554,0.00
9.833,2945.632,0.00
9.850,3002.466,0.00
9.867,3016.327,0.00
9.883,2888.969,0.00
9.900,2543.209,0.00
9.917,2033.219,0.00
9.933,1484.279,0.00
9.950,1019.532,0.00
9.967,680.371,0.00
9.983,412.767,0.00
10.000,251.375,0.00
10.017,156.029,0.00
10.033,95.178,0.00
10.050,61.523,0.00
10.067,19.146,0.00
10.083,-5.574,0.00
10.100,-17.628,0.00
10.117,-18.293,0.00
10.133,-15.649,0.00
10.150,-13.834,0.00
10.167,-11.332,0.00
10.183,-8.747,0.00
10.200,-6.920,0.00
10.217,-5.596,0.00
10.233,-4.491,0.00
10.250,-3.814,0.00
10.267,-3.311,0.00
10.283,-2.829,0.00
10.300,-2.363,0.00
10.317,-2.057,0.00
10.333,-1.576,0.00
10.350,-0.904,0.00
10.367,-0.354,0.00
10.383,-0.221,0.00
10.400,-0.534,0.00
10.417,-1.311,0.00
10.433,-2.021,0.00
10.450,-2.320,0.00
10.467,-2.199,0.00
10.483,-2.004,0.00
10.500,-1.867,0.00
10.517,-1.737,0.00
10.533,-1.504,0.00
10.550,-1.294,0.00
10.567,-0.810,0.00
10.583,-0.358,0.00
10.600,-0.140,0.00
10.617,-0.224,0.00
10.633,-0.446,0.00
10.650,-0.693,0.00
10.667,-1.013,0.00
10.683,-1.105,0.00
10.700,-1.127,0.00
10.717,-1.147,0.00
10.733,-0.999,0.00
10.750,-0.967,0.00
10.767,-1.023,0.00
10.783,-1.130,0.00
10.800,-1.163,0.00
10.817,-1.193,0.00
10.833,-1.181,0.00
10.850,-1.109,0.00
10.867,-1.054,0.00
10.883,-0.954,0.00
10.900,-0.798,0.00
10.917,-0.653,0.00
10.933,-0.533,0.00
10.950,-0.438,0.00
10.967,-0.250,0.00
10.983,-0.153,0.00
11.000,0.083,0.00
11.017,0.372,0.00
11.033,0.562,0.00
11.050,0.512,0.00
11.067,0.343,0.00
11.083,0.131,0.00
11.100,0.088,0.00
11.117,0.254,0.00
11.133,0.467,0.00
11.150,0.509,0.00
11.167,0.565,0.00
11.183,0.580,0.00
11.200,0.595,0.00
11.217,0.630,0.00
11.233,0.723,0.00
11.250,0.626,0.00
11.267,0.494,0.00
11.283,0.365,0.00
11.300,0.296,0.00
11.317,0.348,0.00
11.333,0.527,0.00
11.350,0.689,0.00
11.367,0.876,0.00
11.383,1.188,0.00
11.400,1.524,0.00
11.417,1.906,0.00
11.433,2.822,0.00
11.450,3.647,0.00
11.467,3.516,0.00
11.483,2.222,0.00
11.500,0.461,0.00
11.517,-0.964,0.00
11.533,-1.526,0.00
11.550,-1.436,0.00
11.567,-1.470,0.00
11.583,-1.720,0.00
11.600,-1.608,0.00
11.617,-1.060,0.00
11.633,-0.324,0.00
11.650,0.208,0.00
11.667,0.310,0.00
11.683,0.023,0.00
11.700,-0.448,0.00
11.717,-0.927,0.00
11.733,-1.062,0.00
11.750,-0.930,0.00
11.767,-0.855,0.00
11.783,-0.936,0.00
11.800,-1.207,0.00
11.817,-1.533,0.00
11.833,-1.723,0.00
11.850,-1.714,0.00
11.867,-1.582,0.00
11.883,-1.605,0.00
11.900,-1.500,0.00
11.917,-1.415,0.00
11.933,-1.426,0.00
11.950,-1.468,0.00
11.967,-1.648,0.00
11.983,-1.798,0.00
12.000,-1.806,0.00
12.017,-1.134,0.00
12.033,2.175,0.00
12.050,5.495,0.00
12.067,0.147,0.00
12.083,8.066,0.00
12.100,142.202,0.00
12.117,492.489,0.00
12.133,934.433,0.00
12.150,1192.991,0.00
12.167,1087.663,0.00
12.183,687.895,1.41
12.200,252.839,1.43
12.217,10.848,1.45
12.233,-23.644,1.47
12.250,4.071,1.48
12.267,6.932,1.50
12.283,-0.303,1.52
12.300,-2.328,1.54
12.317,-1.933,1.56
12.333,-1.511,1.58
12.350,-1.350,1.59
12.367,-1.277,1.61
12.383,-1.185,1.63
12.400,-1.151,1.65
12.417,-1.193,1.67
12.433,-1.339,1.69
12.450,-1.575,1.71
12.467,-1.760,1.73
12.483,-1.853,1.75
12.500,-1.731,1.77
12.517,-1.643,1.79
12.533,-1.698,1.81
12.550,-1.788,1.83
12.567,-1.872,1.85
12.583,-1.905,1.88
12.600,-1.893,1.90
12.617,-1.917,1.92
12.633,-1.931,1.94
12.650,-1.975,1.96
12.667,-1.800,1.98
12.683,-1.597,2.01
12.700,-1.438,2.03
12.717,-1.267,2.05
12.733,-1.251,2.07
12.750,-1.272,2.10
12.767,-1.517,2.12
12.783,-1.569,2.14
12.800,-1.386,2.17
12.817,-0.867,2.19
12.833,-0.249,2.21
12.850,-0.013,2.24
12.867,-0.002,2.26
12.883,1.782,2.29
12.900,5.241,2.31
12.917,8.640,2.34
12.933,9.673,2.36
12.950,7.890,2.39
12.967,4.246,2.41
12.983,1.113,2.44
13.000,-0.076,2.46
13.017,-0.271,2.49
13.033,-0.702,2.51
13.050,-0.978,2.54
13.067,-1.326,2.57
13.083,-1.565,2.59
13.100,-1.664,2.62
13.117,-1.576,2.65
13.133,-1.441,2.68
13.150,-1.134,2.70
13.167,-0.691,2.73
13.183,-0.512,2.76
13.200,-0.487,2.79
13.217,-0.720,2.82
13.233,-0.978,2.84
13.250,-1.091,2.87
13.267,-1.137,2.90
13.283,-1.119,2.93
13.300,-1.207,2.96
13.317,-1.225,2.99
13.333,-0.937,3.02
13.350,-0.424,3.05
13.367,0.106,3.08
13.383,0.191,3.11
13.400,-0.232,3.14
13.417,-0.781,3.17
13.433,-1.172,3.20
13.450,-1.222,3.23
13.467,-1.174,3.27
13.483,-1.201,3.30
13.500,-1.135,3.33
13.517,-1.125,3.36
13.533,-1.120,3.39
13.550,-1.166,3.43
13.567,-1.170,3.46
13.583,-1.038,3.49
13.600,-0.925,3.53
13.617,-0.848,3.56
13.633,-0.901,3.59
13.650,-0.952,3.63
13.667,-0.824,3.66
13.683,-0.731,3.69
13.700,-0.628,3.73
13.717,-0.774,3.76
13.733,-0.893,3.80
13.750,-0.940,3.83
13.767,-0.902,3.87
13.783,-0.692,3.91
13.800,-0.339,3.94
13.817,-0.169,3.98
13.833,-0.107,4.01
13.850,-0.250,4.05
13.867,-0.401,4.09
13.883,-0.613,4.12
13.900,-0.676,4.16
13.917,-0.731,4.20
13.933,-0.820,4.24
13.950,-0.813,4.28
13.967,-0.689,4.31
13.983,-0.803,4.35
14.000,-0.876,4.39
14.017,-0.961,4.43
14.033,-0.874,4.47
14.050,-0.763,4.51
14.067,-0.763,4.55
14.083,-0.740,4.59
14.100,-0.695,4.63
14.117,-0.658,4.67
14.133,-0.613,4.71
14.150,-0.741,4.75
14.167,-0.747,4.79
14.183,-0.686,4.83
14.200,-0.451,4.87
14.217,-0.410,4.92
14.233,-0.613,4.96
14.250,-0.734,5.00
14.267,-0.731,5.04
14.283,-0.652,5.09
14.300,-0.587,5.13
14.317,-0.616,5.17
14.333,-0.554,5.22
14.350,-0.514,5.26
14.367,-0.448,5.30
14.383,-0.522,5.35
14.400,-0.631,5.39
14.417,-0.688,5.44
14.433,-0.728,5.48
14.450,-0.735,5.53
14.467,-0.782,5.58
14.483,-0.736,5.62
14.500,-0.608,5.67
14.517,-0.374,5.71
14.533,-0.036,5.76
14.550,0.310,5.81
14.567,0.643,5.85
14.583,0.755,5.90
14.600,0.635,5.95
14.617,0.572,6.00
14.633,0.476,6.05
14.650,0.392,6.09
14.667,0.262,6.14
14.683,0.158,6.19
14.700,0.018,6.24
14.717,0.988,6.29
14.733,-0.775,6.34
14.750,-0.918,6.39
14.767,1.118,6.44
14.783,3.678,6.49
14.800,4.994,6.54
14.817,4.134,6.59
14.833,1.785,6.65
14.850,-0.054,6.70
14.867,0.401,6.75
14.883,2.816,6.80
14.900,2.614,6.85
14.917,3.528,6.91
14.933,3.826,6.96
14.950,4.003,7.01
14.967,4.365,7.07
14.983,4.628,7.12
15.000,4.793,7.17
15.017,4.709,7.23
15.033,4.223,7.28
15.050,3.931,7.34
15.067,4.342,7.39
15.083,5.179,7.45
15.100,5.864,7.51
15.117,6.934,7.56
15.133,8.331,7.62
15.150,9.862,7.67
15.167,11.109,7.73
15.183,11.126,7.79
15.200,9.570,7.85
15.217,7.246,7.90
15.233,5.273,7.96
15.250,4.037,8.02
15.267,3.554,8.08
15.283,3.484,8.14
15.300,4.013,8.20
15.317,4.436,8.26
15.333,4.436,8.32
15.350,6.676,8.38
15.367,10.770,8.44
15.383,14.074,8.50
15.400,14.766,8.56
15.417,13.610,8.62
15.433,12.621,8.68
15.450,13.595,8.74
15.467,20.008,8.80
15.483,32.136,8.87
15.500,47.189,8.93
15.517,61.029,8.99
15.533,66.765,9.06
15.550,61.171,9.12
15.567,47.253,9.18
15.583,31.786,9.25
15.600,19.295,9.31
15.617,9.915,9.38
15.633,3.490,9.44
15.650,-0.608,9.51
15.667,-3.028,9.57
15.683,-4.558,9.64
15.700,-5.302,9.70
15.717,-5.430,9.77
15.733,-5.234,9.84
15.750,-5.093,9.90
15.767,-5.209,9.97
15.783,-5.514,10.04
15.800,-5.632,10.11
15.817,-5.470,10.17
15.833,-5.166,10.24
15.850,-5.073,10.31
15.867,-5.025,10.38
15.883,-5.087,10.45
15.900,-5.019,10.52
15.917,-4.741,10.59
15.933,-4.367,10.66
15.950,-4.038,10.73
15.967,-3.602,10.80
15.983,-2.994,10.87
16.000,-2.332,10.94
16.017,-1.887,11.01
16.033,-1.697,11.09
16.050,-1.628,11.16
16.067,-1.369,11.23
16.083,-0.902,11.30
16.100,0.037,11.38
16.117,1.358,11.45
16.133,3.081,11.53
16.150,5.179,11.60
16.167,7.078,11.67
16.183,7.143,11.75
16.200,5.694,11.82
16.217,3.449,11.90
16.233,1.098,11.97
16.250,-0.600,12.05
16.267,-1.459,12.13
16.283,-2.070,12.20
16.300,-2.379,12.28
16.317,-2.222,12.36
16.333,-1.757,12.44
16.350,-1.705,12.51
16.367,-1.396,12.59
16.383,-1.136,12.67
16.400,-0.854,12.75
16.417,-0.443,12.83
16.433,-0.089,12.91
16.450,-0.058,12.99
16.467,-0.204,13.07
16.483,-0.596,13.15
16.500,-1.145,13.23
16.517,-1.690,13.31
16.533,-1.985,13.39
16.550,-1.575,13.47
16.567,-1.368,13.55
16.583,-0.208,13.64
16.600,1.753,13.72
16.617,3.753,13.80
16.633,5.251,13.88
16.650,5.580,13.97
16.667,4.619,14.05
16.683,2.703,14.13
16.700,0.679,14.22
16.717,-0.781,14.30
16.733,-2.292,14.39
16.750,-2.624,14.47
16.767,-2.499,14.56
16.783,-2.027,14.65
16.800,-1.350,14.73
16.817,-0.739,14.82
16.833,-0.282,14.91
16.850,-0.267,14.99
16.867,-0.540,15.08
16.883,-0.870,15.17
16.900,-1.056,15.26
16.917,-1.090,15.34
16.933,-0.988,15.43
16.950,-0.762,15.52
16.967,-0.563,15.61
16.983,-0.451,15.70
17.000,-0.398,15.79
17.017,-0.399,15.88
17.033,-0.320,15.97
17.050,0.132,16.06
17.067,0.725,16.15
17.083,1.191,16.25
17.100,1.804,16.34
17.117,3.188,16.43
17.133,7.068,16.52
17.150,15.091,16.62
17.167,26.823,16.71
17.183,38.735,16.80
17.200,45.451,16.90
17.217,43.812,16.99
17.233,34.714,17.09
17.250,22.959,17.18
17.267,13.248,17.28
17.283,7.461,17.37
17.300,4.869,17.47
17.317,3.640,17.56
17.333,2.589,17.66
17.350,1.768,17.76
17.367,1.372,17.85
17.383,1.531,17.95
17.400,2.035,18.05
17.417,2.426,18.15
17.433,2.388,18.24
17.450,2.257,18.34
17.467,2.652,18.44
17.483,3.870,18.54
17.500,5.283,18.64
17.517,6.008,18.74
17.533,5.386,18.84
17.550,3.622,18.94
17.567,1.696,19.04
17.583,0.476,19.14
17.600,0.272,19.25
17.617,0.871,19.35
17.633,1.774,19.45
17.650,2.649,19.55
17.667,3.459,19.66
17.683,4.291,19.76
17.700,5.086,19.86
17.717,6.061,19.97
17.733,7.310,20.07
17.750,8.660,20.17
17.767,9.681,20.28
17.783,9.832,20.38
17.800,8.658,20.49
17.817,6.430,20.60
17.833,4.174,20.70
17.850,2.516,20.81
17.867,1.870,20.92
17.883,2.359,21.02
17.900,3.879,21.13
17.917,6.004,21.24
17.933,8.196,21.35
17.950,9.736,21.45
17.967,10.229,21.56
17.983,10.115,21.67
18.000,10.855,21.78
18.017,13.629,21.89
18.033,18.239,22.00
18.050,22.774,22.11
18.067,25.124,22.22
18.083,25.252,22.33
18.100,29.364,22.45
18.117,50.597,22.56
18.133,99.787,22.67
18.150,170.605,22.78
18.167,236.182,22.89
18.183,265.297,23.01
18.200,245.658,23.12
18.217,194.275,23.23
18.233,147.214,23.35
18.250,133.289,23.46
18.267,159.366,23.58
18.283,210.396,23.69
18.300,260.202,23.81
18.317,283.054,23.92
18.333,268.538,24.04
18.350,229.650,24.15
18.367,197.735,24.27
18.383,200.913,24.39
18.400,240.772,24.51
18.417,288.220,24.62
18.433,306.132,24.74
18.450,276.261,24.86
18.467,210.385,24.98
18.483,136.875,25.10
18.500,80.066,25.22
18.517,46.909,25.34
18.533,31.817,25.46
18.550,26.687,25.58
18.567,26.469,25.70
18.583,30.363,25.82
18.600,37.412,25.94
18.617,45.035,26.06
18.633,49.303,26.18
18.650,47.346,26.30
18.667,39.694,26.43
18.683,29.767,26.55
18.700,21.223,26.67
18.717,16.030,26.80
18.733,14.033,26.92
18.750,13.956,27.04
18.767,14.290,27.17
18.783,14.321,27.29
18.800,13.928,27.42
18.817,13.315,27.54
18.833,13.085,27.67
18.850,13.707,27.80
18.867,15.037,27.92
18.883,16.563,28.05
18.900,18.043,28.18
18.917,18.947,28.30
18.933,18.993,28.43
18.950,18.255,28.56
18.967,16.836,28.69
18.983,15.096,28.82
19.000,13.525,28.95
19.017,12.488,29.07
19.033,12.001,29.20
19.050,11.564,29.33
19.067,11.069,29.46
19.083,10.326,29.60
19.100,9.537,29.73
19.117,9.101,29.86
19.133,9.220,29.99
19.150,10.028,30.12
19.167,11.449,30.25
19.183,13.363,30.39
19.200,15.271,30.52
19.217,16.543,30.65
19.233,16.849,30.79
19.250,16.265,30.92
19.267,15.321,31.05
19.283,14.701,31.19
19.300,14.542,31.32
19.317,14.703,31.46
19.333,15.344,31.59
19.350,16.499,31.73
19.367,18.279,31.87
19.383,20.776,32.00
19.400,22.590,32.14
19.417,26.055,32.28
19.433,31.221,32.41
19.450,37.096,32.55
19.467,41.857,32.69
19.483,43.708,32.83
19.500,42.245,32.97
19.517,39.146,33.11
19.533,37.045,33.25
19.550,36.776,33.39
19.567,37.390,33.53
19.583,39.414,33.67
19.600,40.535,33.81
19.617,39.786,33.95
19.633,37.194,34.09
19.650,33.153,34.23
19.667,28.611,34.37
19.683,25.139,34.52
19.700,23.676,34.66
19.717,24.902,34.80
19.733,29.057,34.95
19.750,35.262,35.09
19.767,42.406,35.23
19.783,49.680,35.38
19.800,57.339,35.52
19.817,66.980,35.67
19.833,83.126,35.81
19.850,112.232,35.96
19.867,157.209,36.10
19.883,212.286,36.25
19.900,264.222,36.40
19.917,299.894,36.54
19.933,313.835,36.69
19.950,310.797,36.84
19.967,299.824,36.99
19.983,286.353,37.14
20.000,270.520,37.28
20.017,248.777,37.43
20.033,219.418,37.58
20.050,183.046,37.73
20.067,144.281,37.88
20.083,108.586,38.03
20.100,79.847,38.18
20.117,59.154,38.33
20.133,44.946,38.48
20.150,35.117,38.64
20.167,28.177,38.79
20.183,22.917,38.94
20.200,19.278,39.09
20.217,16.496,39.24
20.233,14.690,39.40
20.250,13.393,39.55
20.267,12.627,39.70
20.283,12.315,39.86
20.300,12.557,40.01
20.317,13.682,40.17
20.333,16.582,40.32
20.350,22.698,40.48
20.367,33.483,40.63
20.383,51.125,40.79
20.400,77.257,40.94
20.417,112.556,41.10
20.433,157.350,41.26
20.450,211.817,41.42
20.467,274.785,41.57
20.483,340.598,41.73
20.500,399.848,41.89
20.517,439.810,42.05
20.533,448.618,42.21
20.550,422.207,42.37
20.567,366.123,42.52
20.583,293.481,42.68
20.600,219.549,42.84
20.617,155.958,43.00
20.633,107.906,43.17
20.650,74.435,43.33
20.667,53.098,43.49
20.683,40.732,43.65
20.700,34.573,43.81
20.717,31.852,43.97
20.733,34.107,44.14
20.750,49.407,44.30
20.767,87.753,44.46
20.783,158.460,44.63
20.800,265.239,44.79
20.817,397.725,44.95
20.833,534.669,45.12
20.850,650.952,45.28
20.867,726.323,45.45
20.883,748.698,45.61
20.900,721.691,45.78
20.917,657.676,45.94
20.933,570.476,46.11
20.950,473.555,46.28
20.967,377.822,46.44
20.983,289.322,46.61
21.000,212.696,46.78
21.017,151.260,46.95
21.033,106.380,47.11
21.050,76.055,47.28
21.067,57.636,47.45
21.083,46.871,47.62
21.100,41.030,47.79
21.117,38.404,47.96
21.133,38.603,48.13
21.150,41.993,48.30
21.167,48.381,48.47
21.183,57.752,48.64
21.200,69.003,48.81
21.217,81.073,48.98
21.233,92.249,49.16
21.250,100.973,49.33
21.267,105.980,49.50
21.283,106.519,49.67
21.300,103.410,49.85
21.317,97.880,50.02
21.333,91.126,50.19
21.350,84.162,50.37
21.367,76.795,50.54
21.383,69.626,50.72
21.400,63.181,50.89
21.417,58.363,51.07
21.433,55.439,51.24
21.450,53.831,51.42
21.467,53.066,51.59
21.483,52.362,51.77
21.500,51.344,51.95
21.517,49.305,52.13
21.533,45.933,52.30
21.550,41.518,52.48
21.567,36.592,52.66
21.583,31.901,52.84
21.600,27.926,53.01
21.617,24.761,53.19
21.633,22.390,53.37
21.650,20.883,53.55
21.667,20.150,53.73
21.683,19.773,53.91
21.700,19.609,54.09
21.717,19.557,54.27
21.733,19.448,54.45
21.750,19.186,54.64
21.767,18.703,54.82
21.783,17.974,55.00
21.800,17.131,55.18
21.817,16.567,55.36
21.833,16.538,55.55
21.850,17.191,55.73
21.867,18.450,55.91
21.883,20.330,56.10
21.900,23.120,56.28
21.917,27.508,56.46
21.933,34.415,56.65
21.950,44.659,56.83
21.967,58.251,57.02
21.983,74.893,57.21
22.000,94.012,57.39
22.017,115.102,57.58
22.033,137.227,57.76
22.050,160.051,57.95
22.067,182.767,58.14
22.083,204.268,58.32
22.100,222.291,58.51
22.117,234.223,58.70
22.133,236.406,58.89
22.150,227.792,59.08
22.167,210.174,59.26
22.183,185.970,59.45
22.200,157.791,59.64
22.217,128.206,59.83
22.233,99.263,60.02
22.250,73.350,60.21
22.267,52.261,60.40
22.283,37.177,60.59
22.300,26.903,60.78
22.317,20.399,60.98
22.333,16.655,61.17
22.350,14.328,61.36
22.367,12.916,61.55
22.383,12.158,61.74
22.400,12.078,61.94
22.417,13.087,62.13
22.433,15.457,62.32
22.450,19.391,62.52
22.467,24.365,62.71
22.483,29.872,62.91
22.500,35.408,63.10
22.517,40.670,63.29
22.533,46.286,63.49
22.550,52.868,63.69
22.567,61.017,63.88
22.583,71.113,64.08
22.600,83.101,64.27
22.617,96.836,64.47
22.633,111.295,64.67
22.650,124.814,64.86
22.667,135.618,65.06
22.683,142.563,65.26
22.700,146.183,65.46
22.717,147.593,65.66
22.733,147.714,65.85
22.750,146.309,66.05
22.767,142.452,66.25
22.783,135.538,66.45
22.800,125.232,66.65
22.817,112.060,66.85
22.833,97.263,67.05
22.850,81.883,67.25
22.867,66.849,67.45
22.883,52.786,67.65
22.900,40.432,67.85
22.917,30.495,68.06
22.933,23.474,68.26
22.950,19.524,68.46
22.967,18.129,68.66
22.983,18.824,68.87
23.000,20.859,69.07
23.017,23.399,69.27
23.033,25.765,69.48
23.050,27.046,69.68
23.067,27.032,69.88
23.083,25.694,70.09
23.100,23.330,70.29
23.117,20.174,70.50
23.133,16.660,70.70
23.150,13.186,70.91
23.167,10.209,71.11
23.183,8.336,71.32
23.200,7.697,71.53
23.217,7.597,71.73
23.233,7.680,71.94
23.250,7.654,72.15
23.267,7.653,72.35
23.283,7.755,72.56
23.300,7.962,72.77
23.317,8.051,72.98
23.333,8.195,73.19
23.350,8.474,73.40
23.367,8.747,73.61
23.383,8.852,73.81
23.400,8.944,74.02
23.417,8.987,74.23
23.433,9.045,74.44
23.450,9.075,74.65
23.467,9.005,74.87
23.483,8.792,75.08
23.500,8.678,75.29
23.517,8.833,75.50
23.533,9.531,75.71
23.550,10.845,75.92
23.567,12.307,76.14
23.583,14.266,76.35
23.600,17.004,76.56
23.617,20.194,76.77
23.633,23.096,76.99
23.650,24.887,77.20
23.667,25.403,77.42
23.683,25.149,77.63
23.700,24.877,77.84
23.717,24.296,78.06
23.733,22.959,78.27
23.750,21.165,78.49
23.767,18.982,78.70
23.783,16.379,78.92
23.800,13.468,79.14
23.817,10.770,79.35
23.833,8.632,79.57
23.850,7.190,79.79
23.867,6.011,80.00
23.883,5.236,80.22
23.900,4.925,80.44
23.917,4.724,80.66
23.933,4.510,80.87
23.950,3.920,81.09
23.967,3.018,81.31
23.983,1.904,81.53
24.000,1.577,81.75
24.017,2.108,81.97
24.033,2.467,82.19
24.050,2.773,82.41
24.067,3.138,82.63
24.083,3.758,82.85
24.100,4.455,83.07
24.117,5.574,83.29
24.133,6.578,83.51
24.150,7.018,83.73
24.167,8.008,83.96
24.183,9.688,84.18
24.200,11.042,84.40
24.217,12.697,84.62
24.233,14.350,84.85
24.250,16.502,85.07
24.267,18.477,85.29
24.283,19.249,85.52
24.300,18.600,85.74
24.317,17.105,85.96
24.333,15.809,86.19
24.350,15.885,86.41
24.367,16.751,86.64
24.383,17.170,86.86
24.400,16.353,87.09
24.417,15.449,87.31
24.433,14.752,87.54
24.450,13.872,87.77
24.467,12.906,87.99
24.483,11.140,88.22
24.500,9.567,88.45
24.517,9.153,88.67
24.533,9.505,88.90
24.550,9.328,89.13
24.567,8.639,89.36
24.583,7.741,89.58
24.600,7.454,89.81
24.617,7.810,90.04
24.633,7.683,90.27
24.650,6.539,90.50
24.667,5.119,90.73
24.683,3.822,90.96
24.700,3.186,91.19
24.717,2.819,91.42
24.733,2.363,91.65
24.750,1.733,91.88
24.767,1.269,92.11
24.783,1.318,92.34
24.800,1.468,92.57
24.817,1.507,92.80
24.833,1.166,93.04
24.850,0.603,93.27
24.867,0.182,93.50
24.883,0.114,93.73
24.900,0.414,93.96
24.917,0.803,94.20
24.933,1.114,94.43
24.950,1.378,94.66
24.967,1.506,94.90
24.983,1.629,95.13
25.000,1.843,95.37
25.017,2.168,95.60
25.033,2.581,95.84
25.050,3.128,96.07
25.067,3.865,96.31
25.083,5.113,96.54
25.100,7.041,96.78
25.117,9.755,97.01
25.133,13.188,97.25
25.150,17.607,97.49
25.167,22.929,97.72
25.183,28.957,97.96
25.200,35.100,98.20
25.217,40.398,98.43
25.233,44.172,98.67
25.250,46.207,98.91
25.267,46.809,99.15
25.283,46.036,99.38
25.300,44.022,99.62
25.317,40.987,99.86
25.333,37.263,100.10
25.350,33.372,100.34
25.367,29.778,100.58
25.383,26.570,100.82
25.400,24.042,101.06
25.417,22.428,101.30
25.433,21.860,101.54
25.450,21.908,101.78
25.467,22.088,102.02
25.483,22.160,102.26
25.500,22.001,102.50
25.517,21.512,102.74
25.533,20.635,102.99
25.550,19.174,103.23
25.567,17.446,103.47
25.583,15.650,103.71
25.600,14.035,103.96
25.617,12.607,104.20
25.633,11.324,104.44
25.650,10.453,104.69
25.667,10.114,104.93
25.683,10.485,105.17
25.700,11.556,105.42
25.717,13.385,105.66
25.733,16.135,105.91
25.750,19.457,106.15
25.767,22.709,106.39
25.783,25.488,106.64
25.800,27.505,106.89
25.817,28.751,107.13
25.833,29.191,107.38
25.850,29.002,107.62
25.867,28.094,107.87
25.883,26.454,108.12
25.900,24.370,108.36
25.917,22.076,108.61
25.933,19.779,108.86
25.950,17.861,109.10
25.967,16.506,109.35
25.983,15.652,109.60
26.000,15.100,109.85
26.017,14.839,110.10
26.033,14.710,110.34
26.050,14.555,110.59
26.067,14.211,110.84
26.083,13.804,111.09
26.100,13.254,111.34
26.117,12.410,111.59
26.133,11.238,111.84
26.150,9.708,112.09
26.167,8.158,112.34
26.183,6.734,112.59
26.200,5.408,112.84
26.217,4.096,113.09
26.233,2.942,113.34
26.250,2.051,113.59
26.267,1.430,113.84
26.283,1.086,114.10
26.300,0.721,114.35
26.317,0.299,114.60
26.333,0.024,114.85
26.350,-0.100,115.11
26.367,-0.211,115.36
26.383,-0.359,115.61
26.400,-0.426,115.86
26.417,-0.572,116.12
26.433,-0.811,116.37
26.450,-0.947,116.63
26.467,-1.085,116.88
26.483,-1.089,117.13
26.500,-0.801,117.39
26.517,-0.486,117.64
26.533,-0.349,117.90
26.550,-0.456,118.15
26.567,-0.655,118.41
26.583,-0.884,118.66
26.600,-1.020,118.92
26.617,-0.882,119.17
26.633,-0.629,119.43
26.650,-0.358,119.69
26.667,-0.027,119.94
26.683,0.177,120.20
26.700,0.268,120.46
26.717,0.329,120.71
26.733,0.436,120.97
26.750,0.746,121.23
26.767,1.303,121.49
26.783,2.081,121.75
26.800,2.941,122.00
26.817,3.712,122.26
26.833,4.422,122.52
26.850,4.847,122.78
26.867,5.178,123.04
26.883,5.459,123.30
26.900,5.572,123.56
26.917,5.491,123.82
26.933,5.102,124.08
26.950,4.416,124.34
26.967,3.591,124.60
26.983,2.814,124.86
27.000,2.157,125.12
27.017,1.444,125.38
27.033,0.798,125.64
27.050,0.188,125.90
27.067,-0.259,126.16
27.083,-0.494,126.42
27.100,-0.615,126.68
27.117,-0.741,126.95
27.133,-0.907,127.21
27.150,-1.076,127.47
27.167,-1.132,127.73
27.183,-1.159,128.00
27.200,-1.185,128.26
27.217,-1.301,128.52
27.233,-1.352,128.79
27.250,-1.332,129.05
27.267,-1.328,129.31
27.283,-1.319,129.58
27.300,-1.384,129.84
27.317,-1.427,130.11
27.333,-1.408,130.37
27.350,-1.340,130.63
27.367,-1.218,130.90
27.383,-1.189,131.16
27.400,-1.237,131.43
27.417,-1.306,131.70
27.433,-1.381,131.96
27.450,-1.276,132.23
27.467,-1.177,132.49
27.483,-1.160,132.76
27.500,-1.070,133.03
27.517,-0.875,133.29
27.533,-0.773,133.56
27.550,-0.669,133.83
27.567,-0.447,134.09
27.583,-0.158,134.36
27.600,-0.010,134.63
27.617,-0.043,134.90
27.633,-0.378,135.16
27.650,-0.808,135.43
27.667,-1.014,135.70
27.683,-0.943,135.97
27.700,-0.811,136.24
27.717,-0.633,136.51
27.733,-0.539,136.77
27.750,-0.572,137.04
27.767,-0.571,137.31
27.783,-0.550,137.58
27.800,-0.361,137.85
27.817,-0.017,138.12
27.833,0.310,138.39
27.850,0.631,138.66
27.867,0.769,138.93
27.883,0.596,139.20
27.900,0.162,139.47
27.917,-0.290,139.75
27.933,-0.418,140.02
27.950,-0.386,140.29
27.967,-0.230,140.56
27.983,-0.230,140.83
28.000,-0.718,141.10
28.017,-0.733,141.38
28.033,-0.177,141.65
28.050,0.536,141.92
28.067,0.852,142.19
28.083,0.450,142.47
28.100,-0.330,142.74
28.117,-0.882,143.01
28.133,-0.791,143.29
28.150,-0.525,143.56
28.167,-0.706,143.83
28.183,-0.790,144.11
28.200,-0.867,144.38
28.217,-0.834,144.65
28.233,-0.697,144.93
28.250,-0.644,145.20
28.267,-0.703,145.48
28.283,-0.734,145.75
28.300,-0.657,146.03
28.317,-0.466,146.30
28.333,-0.276,146.58
28.350,-0.236,146.85
28.367,-0.337,147.13
28.383,-0.554,147.41
28.400,-0.732,147.68
28.417,-0.812,147.96
28.433,-0.744,148.24
28.450,-0.609,148.51
28.467,-0.543,148.79
28.483,-0.539,149.07
28.500,-0.621,149.34
28.517,-0.732,149.62
28.533,-0.711,149.90
28.550,-0.625,150.18
28.567,-0.584,150.45
28.583,-0.625,150.73
28.600,-0.671,151.01
28.617,-0.642,151.29
28.633,-0.584,151.57
28.650,-0.535,151.84
28.667,-0.483,152.12
28.683,-0.414,152.40
28.700,-0.445,152.68
28.717,-0.320,152.96
28.733,0.035,153.24
28.750,0.405,153.52
28.767,0.548,153.80
28.783,0.342,154.08
28.800,-0.155,154.36
28.817,-0.580,154.64
28.833,-0.673,154.92
28.850,-0.468,155.20
28.867,-0.307,155.48
28.883,-0.172,155.76
28.900,-0.146,156.04
28.917,-0.207,156.33
28.933,-0.233,156.61
28.950,-0.241,156.89
28.967,-0.274,157.17
28.983,-0.306,157.45
29.000,-0.389,157.73
29.017,-0.396,158.02
29.033,-0.323,158.30
29.050,-0.263,158.58
29.067,-0.233,158.86
29.083,-0.239,159.15
29.100,-0.256,159.43
29.117,-0.065,159.71
29.133,0.515,160.00
29.150,1.168,160.28
29.167,1.424,160.56
29.183,1.184,160.85
29.200,0.598,161.13
29.217,0.018,161.42
29.233,-0.163,161.70
29.250,-0.082,161.98
29.267,-0.059,162.27
29.283,-0.175,162.55
29.300,-0.247,162.84
29.317,-0.170,163.12
29.333,-0.043,163.41
29.350,0.083,163.69
29.367,0.059,163.98
29.383,-0.043,164.27
29.400,-0.101,164.55
29.417,-0.112,164.84
29.433,-0.033,165.12
29.450,-0.010,165.41
29.467,-0.008,165.70
29.483,0.047,165.98
29.500,0.042,166.27
29.517,-0.038,166.56
29.533,-0.215,166.84
29.550,-0.252,167.13
29.567,-0.196,167.42
29.583,-0.105,167.71
29.600,-0.010,167.99
29.617,0.042,168.28
29.633,0.188,168.57
29.650,0.366,168.86
29.667,0.491,169.15
29.683,0.422,169.43
29.700,0.144,169.72
29.717,-0.118,170.01
29.733,-0.249,170.30
29.750,-0.262,170.59
29.767,-0.298,170.88
29.783,-0.339,171.17
29.800,-0.237,171.46
29.817,-0.125,171.75
29.833,-0.029,172.04
29.850,-0.038,172.33
29.867,-0.142,172.62
29.883,-0.214,172.91
29.900,-0.187,173.20
29.917,-0.166,173.49
29.933,-0.155,173.78
29.950,-0.134,174.07
29.967,-0.076,174.36
29.983,-0.078,174.65
30.000,-0.064,174.94
30.017,-0.030,175.23
30.033,0.005,175.52
30.050,0.034,175.81
30.067,0.093,176.11
30.083,0.089,176.40
30.100,0.133,176.69
30.117,0.236,176.98
30.133,0.307,177.27
30.150,0.357,177.57
30.167,0.464,177.86
30.183,0.575,178.15
30.200,0.640,178.44
30.217,0.659,178.74
30.233,0.682,179.03
30.250,0.700,179.32
30.267,0.752,179.62
30.283,0.818,179.91
30.300,0.974,180.20
30.317,1.270,180.50
30.333,1.503,180.79
30.350,1.497,181.09
30.367,1.258,181.38
30.383,0.860,181.67
30.400,0.500,181.97
30.417,0.368,182.26
30.433,0.308,182.56
30.450,0.173,182.85
30.467,0.053,183.15
30.483,0.017,183.44
30.500,0.058,183.74
30.517,0.118,184.03
30.533,0.154,184.33
30.550,0.081,184.62
30.567,0.021,184.92
30.583,0.026,185.22
30.600,0.016,185.51
30.617,-0.051,185.81
30.633,-0.098,186.10
30.650,-0.034,186.40
30.667,0.049,186.70
30.683,-0.003,186.99
30.700,-0.140,187.29
30.717,-0.139,187.59
30.733,0.128,187.88
30.750,0.436,188.18
30.767,0.503,188.48
30.783,0.300,188.78
30.800,0.025,189.07
30.817,-0.104,189.37
30.833,-0.064,189.67
30.850,0.069,189.97
30.867,0.226,190.27
30.883,0.373,190.56
30.900,0.436,190.86
30.917,0.390,191.16
30.933,0.280,191.46
30.950,0.183,191.76
30.967,0.133,192.06
30.983,0.120,192.36
31.000,0.099,192.65
31.017,0.072,192.95
31.033,0.067,193.25
31.050,0.052,193.55
31.067,0.036,193.85
31.083,-0.009,194.15
31.100,0.002,194.45
31.117,0.084,194.75
31.133,0.179,195.05
31.150,0.188,195.35
31.167,0.082,195.65
31.183,-0.036,195.95
31.200,0.026,196.25
31.217,0.179,196.55
31.233,0.282,196.85
31.250,0.270,197.15
31.267,0.167,197.46
31.283,0.131,197.76
31.300,0.153,198.06
31.317,0.129,198.36
31.333,0.022,198.66
31.350,-0.128,198.96
31.367,-0.212,199.26
31.383,-0.216,199.57
31.400,-0.162,199.87
31.417,-0.134,200.17
31.433,-0.107,200.47
31.450,-0.003,200.77
31.467,0.094,201.08
31.483,0.184,201.38
31.500,0.180,201.68
31.517,0.084,201.98
31.533,-0.061,202.29
31.550,-0.120,202.59
31.567,-0.113,202.89
31.583,-0.140,203.20
31.600,-0.136,203.50
31.617,-0.127,203.80
31.633,-0.154,204.11
31.650,-0.125,204.41
31.667,-0.135,204.71
31.683,-0.115,205.02
31.700,-0.117,205.32
31.717,-0.179,205.63
31.733,-0.238,205.93
31.750,-0.209,206.24
31.767,-0.059,206.54
31.783,0.136,206.84
31.800,0.128,207.15
31.817,0.027,207.45
31.833,-0.066,207.76
31.850,-0.061,208.06
31.867,-0.071,208.37
31.883,-0.079,208.67
31.900,-0.056,208.98
31.917,-0.005,209.28
31.933,0.149,209.59
31.950,0.256,209.90
31.967,0.099,210.20
31.983,-0.021,210.51
32.000,0.044,210.81
32.017,0.193,211.12
32.033,0.212,211.43
32.050,0.125,211.73
32.067,-0.023,212.04
32.083,-0.120,212.34
32.100,-0.054,212.65
32.117,0.071,212.96
32.133,0.090,213.27
32.150,0.006,213.57
32.167,-0.084,213.88
32.183,-0.134,214.19
32.200,-0.093,214.49
32.217,-0.038,214.80
32.233,-0.060,215.11
32.250,-0.092,215.42
32.267,-0.129,215.72
32.283,-0.112,216.03
32.300,-0.118,216.34
32.317,-0.137,216.65
32.333,-0.157,216.96
32.350,-0.173,217.26
32.367,-0.085,217.57
32.383,0.002,217.88
32.400,0.025,218.19
32.417,0.047,218.50
32.433,0.074,218.81
32.450,0.110,219.11
32.467,0.186,219.42
32.483,0.280,219.73
32.500,0.383,220.04
32.517,0.460,220.35
32.533,0.417,220.66
32.550,0.270,220.97
32.567,0.075,221.28
32.583,-0.128,221.59
32.600,-0.204,221.90
32.617,-0.114,222.21
32.633,0.021,222.52
32.650,0.050,222.83
32.667,0.032,223.14
32.683,0.011,223.45
32.700,-0.025,223.76
32.717,-0.013,224.07
32.733,0.009,224.38
32.750,-0.009,224.69
32.767,-0.017,225.00
32.783,-0.024,225.31
32.800,-0.137,225.62
32.817,-0.072,225.93
32.833,0.439,226.24
32.850,1.136,226.55
32.867,1.498,226.87
32.883,1.350,227.18
32.900,0.799,227.49
32.917,0.166,227.80
32.933,-0.182,228.11
32.950,-0.199,228.42
32.967,-0.237,228.73
32.983,-0.248,229.05
33.000,-0.122,229.36
33.017,-0.038,229.67
33.033,-0.097,229.98
33.050,-0.167,230.29
33.067,-0.199,230.61
33.083,-0.200,230.92
33.100,-0.152,231.23
33.117,-0.018,231.54
33.133,0.035,231.86
33.150,-0.026,232.17
33.167,-0.055,232.48
33.183,-0.081,232.80
33.200,-0.111,233.11
33.217,-0.136,233.42
33.233,-0.167,233.73
33.250,-0.224,234.05
33.267,-0.260,234.36
33.283,-0.185,234.67
33.300,-0.183,234.99
33.317,-0.274,235.30
33.333,-0.031,235.62
33.350,0.598,235.93
33.367,1.242,236.24
33.383,1.438,236.56
33.400,1.150,236.87
33.417,0.600,237.19
33.433,0.175,237.50
33.450,0.067,237.81
33.467,0.034,238.13
33.483,-0.061,238.44
33.500,-0.096,238.76
33.517,-0.085,239.07
33.533,-0.115,239.39
33.550,-0.178,239.70
33.567,-0.188,240.02
33.583,-0.215,240.33
33.600,-0.219,240.65
33.617,-0.221,240.96
33.633,-0.208,241.28
33.650,-0.148,241.59
33.667,-0.116,241.91
33.683,-0.124,242.22
33.700,-0.096,242.54
33.717,-0.024,242.85
33.733,0.046,243.17
33.750,0.036,243.49
33.767,0.010,243.80
33.783,-0.012,244.12
33.800,0.010,244.43
33.817,0.012,244.75
33.833,-0.071,245.07
33.850,-0.173,245.38
33.867,-0.281,245.70
33.883,-0.353,246.02
33.900,-0.421,246.33
33.917,-0.432,246.65
33.933,-0.186,246.97
33.950,0.210,247.28
33.967,0.491,247.60
33.983,0.540,247.92
34.000,0.376,248.23
34.017,0.169,248.55
34.033,0.119,248.87
34.050,0.175,249.18
34.067,0.093,249.50
34.083,-0.100,249.82
34.100,-0.215,250.14
34.117,-0.189,250.45
34.133,-0.077,250.77
34.150,0.066,251.09
34.167,0.095,251.41
34.183,-0.003,251.72
34.200,-0.107,252.04
34.217,-0.211,252.36
34.233,-0.290,252.68
34.250,-0.334,253.00
34.267,-0.319,253.31
34.283,-0.239,253.63
34.300,-0.221,253.95
34.317,-0.254,254.27
34.333,-0.262,254.59
34.350,-0.268,254.91
34.367,-0.278,255.23
34.383,-0.243,255.54
34.400,-0.167,255.86
34.417,-0.086,256.18
34.433,-0.089,256.50
34.450,-0.235,256.82
34.467,-0.481,257.14
34.483,-0.620,257.46
34.500,-0.530,257.78
34.517,-0.389,258.10
34.533,-0.290,258.42
34.550,-0.242,258.74
34.567,-0.217,259.06
34.583,-0.171,259.37
34.600,-0.107,259.69
34.617,-0.055,260.01
34.633,-0.079,260.33
34.650,-0.074,260.65
34.667,-0.020,260.97
34.683,-0.018,261.29
34.700,-0.014,261.61
34.717,-0.067,261.93
34.733,-0.160,262.25
34.750,-0.121,262.57
34.767,0.062,262.89
34.783,0.220,263.21
34.800,0.274,263.54
34.817,0.273,263.86
34.833,0.250,264.18
34.850,0.269,264.50
34.867,0.263,264.82
34.883,0.149,265.14
34.900,-0.044,265.46
34.917,-0.188,265.78
34.933,-0.173,266.10
34.950,-0.072,266.42
34.967,0.019,266.74
34.983,0.002,267.06
35.000,-0.108,267.39
35.017,-0.176,267.71
35.033,-0.148,268.03
35.050,-0.069,268.35
35.067,-0.094,268.67
35.083,-0.163,268.99
35.100,-0.192,269.31
35.117,-0.214,269.64
35.133,-0.172,269.96
35.150,-0.183,270.28
35.167,-0.288,270.60
35.183,-0.273,270.92
35.200,-0.121,271.25
35.217,0.001,271.57
35.233,0.009,271.89
35.250,0.034,272.21
35.267,0.215,272.53
35.283,0.538,272.86
35.300,0.819,273.18
35.317,0.786,273.50
35.333,0.448,273.82
35.350,0.109,274.15
35.367,-0.070,274.47
35.383,-0.105,274.79
35.400,-0.103,275.11
35.417,-0.062,275.44
35.433,0.022,275.76
35.450,0.087,276.08
35.467,0.110,276.41
35.483,0.027,276.73
35.500,-0.159,277.05
35.517,-0.283,277.37
35.533,-0.326,277.70
35.550,-0.363,278.02
35.567,-0.375,278.34
35.583,-0.318,278.67
35.600,-0.310,278.99
35.617,-0.276,279.31
35.633,-0.156,279.64
35.650,-0.030,279.96
35.667,0.044,280.29
35.683,0.041,280.61
35.700,-0.044,280.93
35.717,-0.098,281.26
35.733,0.025,281.58
35.750,0.294,281.90
35.767,0.471,282.23
35.783,0.411,282.55
35.800,0.173,282.88
35.817,-0.058,283.20
35.833,-0.203,283.52
35.850,-0.245,283.85
35.867,-0.251,284.17
35.883,-0.268,284.50
35.900,-0.266,284.82
35.917,-0.269,285.15
35.933,-0.249,285.47
35.950,-0.267,285.80
35.967,-0.311,286.12
35.983,-0.318,286.44
36.000,-0.372,286.77
36.017,-0.383,287.09
36.033,-0.354,287.42
36.050,-0.310,287.74
36.067,-0.269,288.07
36.083,-0.342,288.39
36.100,-0.424,288.72
36.117,-0.444,289.04
36.133,-0.378,289.37
36.150,-0.269,289.69
36.167,-0.218,290.02
36.183,-0.175,290.34
36.200,-0.151,290.67
36.217,-0.146,290.99
36.233,-0.138,291.32
36.250,-0.154,291.65
36.267,-0.187,291.97
36.283,-0.208,292.30
36.300,-0.192,292.62
36.317,-0.155,292.95
36.333,-0.043,293.27
36.350,0.075,293.60
36.367,0.136,293.93
36.383,0.135,294.25
36.400,0.093,294.58
36.417,0.078,294.90
36.433,0.023,295.23
36.450,-0.041,295.55
36.467,-0.072,295.88
36.483,-0.062,296.21
36.500,-0.013,296.53
36.517,-0.061,296.86
36.533,-0.171,297.19
36.550,-0.185,297.51
36.567,-0.101,297.84
36.583,0.016,298.16
36.600,0.033,298.49
36.617,-0.067,298.82
36.633,-0.221,299.14
36.650,-0.333,299.47
36.667,-0.355,299.80
36.683,-0.368,300.12
36.700,-0.423,300.45
36.717,-0.482,300.78
36.733,-0.503,301.10
36.750,-0.464,301.43
36.767,-0.370,301.76
36.783,-0.254,302.08
36.800,-0.191,302.41
36.817,-0.243,302.74
36.833,-0.296,303.07
36.850,-0.265,303.39
36.867,-0.181,303.72
36.883,-0.089,304.05
36.900,-0.017,304.37
36.917,0.018,304.70
36.933,0.058,305.03
36.950,0.176,305.36
36.967,0.301,305.68
36.983,0.517,306.01
37.000,0.884,306.34
37.017,1.373,306.67
37.033,2.125,306.99
37.050,2.887,307.32
37.067,3.336,307.65
37.083,3.354,307.98
37.100,3.008,308.30
37.117,2.495,308.63
37.133,1.966,308.96
37.150,1.495,309.29
37.167,0.930,309.62
37.183,0.427,309.94
37.200,0.213,310.27
37.217,0.160,310.60
37.233,0.178,310.93
37.250,0.093,311.26
37.267,-0.097,311.58
37.283,-0.227,311.91
37.300,-0.250,312.24
37.317,-0.230,312.57
37.333,-0.183,312.90
37.350,-0.073,313.22
37.367,-0.072,313.55
37.383,-0.067,313.88
37.400,0.124,314.21
37.417,0.348,314.54
37.433,0.489,314.87
37.450,0.460,315.19
37.467,0.231,315.52
37.483,-0.068,315.85
37.500,-0.261,316.18
37.517,-0.294,316.51
37.533,-0.270,316.84
37.550,-0.249,317.17
37.567,-0.185,317.50
37.583,-0.150,317.82
37.600,-0.171,318.15
37.617,-0.166,318.48
37.633,-0.128,318.81
37.650,-0.146,319.14
37.667,-0.238,319.47
37.683,-0.317,319.80
37.700,-0.318,320.13
37.717,-0.304,320.46
37.733,-0.282,320.78
37.750,-0.255,321.11
37.767,-0.236,321.44
37.783,-0.233,321.77
37.800,-0.294,322.10
37.817,-0.348,322.43
37.833,-0.382,322.76
37.850,-0.386,323.09
37.867,-0.344,323.42
37.883,-0.316,323.75
37.900,-0.327,324.08
37.917,-0.356,324.41
37.933,-0.333,324.74
37.950,-0.291,325.07
37.967,-0.238,325.39
37.983,-0.168,325.72
38.000,-0.100,326.05
38.017,-0.058,326.38
38.033,-0.126,326.71
38.050,-0.178,327.04
38.067,-0.168,327.37
38.083,-0.199,327.70
38.100,-0.210,328.03
38.117,-0.195,328.36
38.133,-0.195,328.69
38.150,-0.231,329.02
38.167,-0.171,329.35
38.183,-0.079,329.68
38.200,-0.140,330.01
38.217,-0.164,330.34
38.233,-0.046,330.67
38.250,0.126,331.00
38.267,0.241,331.33
38.283,0.173,331.66
38.300,-0.014,331.99
38.317,-0.195,332.32
38.333,-0.285,332.65
38.350,-0.238,332.98
38.367,-0.154,333.31
38.383,-0.091,333.64
38.400,-0.061,333.97
38.417,-0.094,334.30
38.433,-0.171,334.63
38.450,-0.276,334.96
38.467,-0.314,335.29
38.483,-0.253,335.62
38.500,-0.176,335.95
38.517,-0.086,336.29
38.533,-0.028,336.62
38.550,-0.039,336.95
38.567,-0.026,337.28
38.583,0.013,337.61
38.600,0.013,337.94
38.617,-0.077,338.27
38.633,-0.189,338.60
38.650,-0.224,338.93
38.667,-0.179,339.26
38.683,-0.119,339.59
38.700,-0.150,339.92
38.717,-0.208,340.25
38.733,-0.203,340.58
38.750,-0.159,340.91
38.767,-0.144,341.24
38.783,-0.167,341.58
38.800,-0.197,341.91
38.817,-0.219,342.24
38.833,-0.205,342.57
38.850,-0.161,342.90
38.867,-0.120,343.23
38.883,-0.083,343.56
38.900,-0.068,343.89
38.917,-0.051,344.22
38.933,0.046,344.55
38.950,0.355,344.88
38.967,0.852,345.22
38.983,1.298,345.55
39.000,1.396,345.88
39.017,1.104,346.21
39.033,0.651,346.54
39.050,0.299,346.87
39.067,0.189,347.20
39.083,0.221,347.53
39.100,0.256,347.87
39.117,0.215,348.20
39.133,0.093,348.53
39.150,-0.069,348.86
39.167,-0.249,349.19
39.183,-0.353,349.52
39.200,-0.317,349.85
39.217,-0.184,350.18
39.233,-0.062,350.52
39.250,0.017,350.85
39.267,0.015,351.18
39.283,-0.009,351.51
39.300,-0.057,351.84
39.317,-0.153,352.17
39.333,-0.213,352.50
39.350,-0.246,352.84
39.367,-0.251,353.17
39.383,-0.251,353.50
39.400,-0.282,353.83
39.417,-0.317,354.16
39.433,-0.347,354.49
39.450,-0.332,354.83
39.467,-0.353,355.16
39.483,-0.433,355.49
39.500,-0.489,355.82
39.517,-0.416,356.15
39.533,-0.216,356.48
39.550,-0.056,356.82
39.567,-0.014,357.15
39.583,-0.061,357.48
39.600,-0.123,357.81
39.617,-0.144,358.14
39.633,-0.155,358.47
39.650,-0.179,358.81
39.667,-0.234,359.14
39.683,-0.277,359.47
39.700,-0.297,359.80
39.717,-0.318,360.13
39.733,-0.313,360.47
39.750,-0.306,360.80
39.767,-0.275,361.13
39.783,-0.237,361.46
39.800,-0.313,361.79
39.817,-0.411,362.12
39.833,-0.448,362.46
39.850,-0.447,362.79
39.867,-0.390,363.12
39.883,-0.328,363.45
39.900,-0.299,363.78
39.917,-0.299,364.12
39.933,-0.303,364.45
39.950,-0.267,364.78
39.967,-0.250,365.11
39.983,-0.276,365.44
40.000,-0.305,365.78
40.017,-0.331,366.11
40.033,-0.344,366.44
40.050,-0.297,366.77
40.067,-0.190,367.11
40.083,-0.159,367.44
40.100,-0.284,367.77
40.117,-0.471,368.10
40.133,-0.551,368.43
40.150,-0.538,368.77
40.167,-0.438,369.10
40.183,-0.265,369.43
40.200,-0.150,369.76
40.217,-0.074,370.10
40.233,-0.059,370.43
40.250,-0.147,370.76
40.267,-0.296,371.09
40.283,-0.394,371.42
40.300,-0.345,371.76
40.317,-0.327,372.09
40.333,-0.405,372.42
40.350,-0.469,372.75
40.367,-0.469,373.09
40.383,-0.382,373.42
40.400,-0.297,373.75
40.417,-0.296,374.08
40.433,-0.373,374.42
40.450,-0.448,374.75
40.467,-0.534,375.08
40.483,-0.567,375.41
40.500,-0.313,375.74
40.517,0.118,376.08
40.533,0.433,376.41
40.550,0.472,376.74
40.567,0.254,377.07
40.583,-0.078,377.41
40.600,-0.313,377.74
40.617,-0.372,378.07
40.633,-0.407,378.40
40.650,-0.332,378.74
40.667,0.014,379.07
40.683,0.338,379.40
40.700,0.520,379.73
40.717,0.884,380.07
40.733,1.756,380.40
40.750,3.615,380.73
40.767,6.264,381.06
40.783,8.329,381.40
40.800,8.568,381.73
40.817,7.011,382.06
40.833,4.718,382.39
40.850,2.753,382.73
40.867,1.731,383.06
40.883,1.392,383.39
40.900,1.017,383.72
40.917,0.589,384.06
40.933,0.255,384.39
40.950,-0.010,384.72
40.967,-0.210,385.05
40.983,-0.336,385.39
41.000,-0.377,385.72
41.017,-0.454,386.05
41.033,-0.517,386.38
41.050,-0.512,386.72
41.067,-0.472,387.05
41.083,-0.414,387.38
41.100,-0.399,387.72
41.117,-0.443,388.05
41.133,-0.526,388.38
41.150,-0.571,388.71
41.167,-0.567,389.05
41.183,-0.605,389.38
41.200,-0.639,389.71
41.217,-0.636,390.04
41.233,-0.595,390.38
41.250,-0.524,390.71
41.267,-0.488,391.04
41.283,-0.482,391.37
41.300,-0.469,391.71
41.317,-0.413,392.04
41.333,-0.401,392.37
41.350,-0.446,392.70
41.367,-0.496,393.04
41.383,-0.484,393.37
41.400,-0.370,393.70
41.417,-0.311,394.04
41.433,-0.300,394.37
41.450,-0.302,394.70
41.467,-0.350,395.03
41.483,-0.391,395.37
41.500,-0.405,395.70
41.517,-0.389,396.03
41.533,-0.390,396.36
41.550,-0.429,396.70
41.567,-0.470,397.03
41.583,-0.537,397.36
41.600,-0.612,397.69
41.617,-0.664,398.03
41.633,-0.690,398.36
41.650,-0.678,398.69
